MORPHOLOGY AT STRAIN =    1.0000  FOR PHASE  1
   1.133   3.874   0.228  <-- AXES OF PHASE ELLIPSOID
 -161.94   90.00   90.00  <-- EULER ANGLES OF PHASE ELLIPSOID (deg)
   1.091   2.395   0.413  <-- AVERAGE OF GRAIN AXES FOR PHASE
   0.098   0.308   0.248  <-- STANDARD DEV OF AVG GRAIN AXES FOR PHASE
B       500
   99.81  122.18  -26.31     0.002000       0.9746    2.1198    0.4833
   73.89   93.05  -25.64     0.002000       1.1075    2.8681    0.3137
   79.01   87.14  -24.07     0.002000       1.0008    4.1186    0.2427
   90.43   89.34  -27.59     0.002000       1.1271    1.9612    0.4517
   88.66   92.89  -27.65     0.002000       1.1231    1.9901    0.4468
   93.00   88.99  -24.11     0.002000       1.0000    4.3056    0.2327
   92.71   86.67  -28.03     0.002000       1.1336    2.0933    0.4210
   99.85   86.54  -25.13     0.002000       1.0281    3.6093    0.2693
   93.55   88.18  -26.95     0.002000       1.1389    1.9793    0.4427
   87.73   70.56  -26.88     0.002000       1.0231    2.5639    0.3806
   84.08   85.43  -24.05     0.002000       1.0003    4.1943    0.2387
   86.90   93.38  -24.36     0.002000       1.0010    4.1524    0.2410
   95.12   88.13  -26.50     0.002000       1.1907    1.8562    0.4511
   87.84   90.98  -26.84     0.002000       1.2152    2.0005    0.4103
   87.26   96.10  -27.61     0.002000       1.1786    1.7698    0.4783
   90.80   86.40  -29.69     0.002000       0.9539    2.0517    0.5112
   89.60   84.75  -24.42     0.002000       1.0014    4.0767    0.2453
   91.51   57.14  -30.68     0.002000       0.8792    1.9549    0.5813
   89.85   67.70  -30.67     0.002000       0.8321    1.9790    0.6072
   86.70  101.73  -26.37     0.002000       1.0499    2.9123    0.3266
   99.24   89.23  -25.95     0.002000       1.2794    1.9091    0.4077
   72.54   90.38  -25.07     0.002000       1.0791    3.1215    0.2959
   88.71   96.29  -24.72     0.002000       1.0093    3.8876    0.2551
   76.46   89.14  -24.45     0.002000       1.0183    3.8186    0.2570
   90.22   90.68  -27.66     0.002000       1.1177    1.9630    0.4552
  104.19   99.39  -23.48     0.002000       1.3028    1.7084    0.4472
   88.58   92.45  -26.65     0.002000       1.1370    1.8681    0.4697
   93.88   90.48  -26.71     0.002000       1.2012    1.9938    0.4164
   91.66   86.02  -30.09     0.002000       0.9948    2.3619    0.4264
   85.51   88.16  -26.30     0.002000       1.2378    1.9542    0.4120
   89.57   92.19  -27.03     0.002000       1.1137    1.8968    0.4724
  116.88   92.85  -24.85     0.002000       1.2319    2.4911    0.3240
   94.65   91.53  -26.44     0.002000       1.2543    1.9769    0.4020
   94.39   84.27  -30.28     0.002000       0.9725    2.2159    0.4646
   62.44   84.94  -25.07     0.002000       1.3336    2.3739    0.3143
   97.24   91.51  -26.30     0.002000       1.2865    1.9590    0.3954
   70.13   88.53  -24.75     0.002000       1.0848    3.0910    0.2971
   79.09  109.13  -27.78     0.002000       1.0444    1.8341    0.5207
   90.99   83.38  -28.15     0.002000       1.1043    1.6853    0.5364
   92.64   87.00  -27.63     0.002000       1.1520    2.0839    0.4160
  100.40   74.14  -27.90     0.002000       1.0740    2.1473    0.4323
   89.07   91.12  -25.89     0.002000       1.1569    1.8818    0.4579
   87.75   93.41  -27.61     0.002000       1.1260    2.0141    0.4403
  117.79   98.45  -23.79     0.002000       1.1600    3.0244    0.2839
   87.65   90.98  -26.81     0.002000       1.1738    1.9877    0.4276
   92.77   88.02  -28.20     0.002000       1.1368    2.0792    0.4228
   89.49  113.59  -27.81     0.002000       1.0168    2.2006    0.4460
   89.08   92.54  -27.61     0.002000       1.1219    1.9764    0.4503
  105.16   94.17  -25.80     0.002000       1.3557    2.0068    0.3660
   98.91  103.97  -24.95     0.002000       1.0228    3.2119    0.3041
   90.27  100.12  -25.42     0.002000       1.0271    3.3928    0.2869
   87.52   92.85  -27.05     0.002000       1.1291    1.9384    0.4560
   85.92   90.02  -26.69     0.002000       1.2384    1.9679    0.4091
   98.79   91.15  -24.19     0.002000       1.0003    4.1637    0.2403
   94.89   57.98  -30.16     0.002000       0.9122    1.8948    0.5777
   89.88   90.55  -30.22     0.002000       0.8632    1.9620    0.5905
   92.37   84.67  -28.38     0.002000       0.9776    1.9698    0.5189
  117.21   93.79  -24.91     0.002000       1.2454    2.7373    0.2919
   89.78   92.70  -24.12     0.002000       1.0001    4.2880    0.2337
   87.69   91.65  -27.73     0.002000       1.1524    1.9522    0.4438
   86.59   88.39  -23.99     0.002000       1.0000    4.3479    0.2305
   88.61   93.92  -27.22     0.002000       1.1471    2.0169    0.4314
   89.20   96.61  -29.71     0.002000       0.8378    1.9408    0.6148
   94.27   91.85  -24.02     0.002000       1.0001    4.3100    0.2324
   92.84   88.71  -27.12     0.002000       1.1108    1.9121    0.4699
   86.18   92.20  -27.18     0.002000       1.1316    1.9883    0.4436
   74.48   88.84  -24.54     0.002000       1.0343    3.6121    0.2672
   75.97   90.80  -25.33     0.002000       1.2748    1.8825    0.4147
   75.45   95.51  -26.12     0.002000       1.1212    2.6698    0.3328
   86.76   92.94  -26.98     0.002000       1.2119    1.9131    0.4301
   93.79   88.36  -28.11     0.002000       1.1378    2.1785    0.4032
   88.11   93.15  -27.81     0.002000       1.1249    2.0245    0.4386
   90.56   82.30  -24.96     0.002000       1.0107    3.7478    0.2642
   91.74   85.74  -28.03     0.002000       0.9921    1.9551    0.5151
   81.71   94.60  -25.16     0.002000       1.0333    3.5777    0.2704
   89.35   85.53  -24.29     0.002000       1.0005    4.1597    0.2407
   75.80   85.01  -23.96     0.002000       1.0076    3.9800    0.2493
   62.93   85.71  -24.74     0.002000       1.2411    2.8098    0.2854
   87.33   93.05  -27.12     0.002000       1.1312    1.9832    0.4449
   73.40   88.13  -24.45     0.002000       1.0389    3.5823    0.2682
   86.19   91.85  -27.14     0.002000       1.1420    2.0022    0.4365
   95.79   83.40  -25.40     0.002000       1.0254    3.5301    0.2762
   86.99   80.05  -25.01     0.002000       1.0145    3.5875    0.2748
   87.45   92.85  -27.02     0.002000       1.1165    1.9284    0.4635
   91.53   89.20  -24.04     0.002000       1.0000    4.3493    0.2304
   87.71   93.36  -27.54     0.002000       1.1252    2.0041    0.4428
   89.40   92.67  -27.96     0.002000       1.1296    2.0306    0.4355
   94.10   93.18  -23.95     0.002000       0.9934    1.6049    0.6259
   87.21   90.20  -26.77     0.002000       1.2182    2.0040    0.4085
   94.10   87.72  -27.95     0.002000       1.1216    2.0420    0.4362
   77.87   87.54  -24.11     0.002000       1.0029    4.1033    0.2431
   90.55   79.27  -25.69     0.002000       1.0244    3.3066    0.2951
   90.50   93.12  -30.71     0.002000       0.9119    2.1363    0.5139
   67.17   89.89  -25.25     0.002000       1.1870    2.4092    0.3478
   89.40   92.08  -27.48     0.002000       1.1189    1.9514    0.4573
  105.14   90.57  -24.72     0.002000       1.0345    3.5624    0.2708
   95.22  106.33  -25.91     0.002000       1.0291    2.8473    0.3408
   90.05   94.02  -28.68     0.002000       0.9824    1.9851    0.5126
   92.18   98.30  -30.72     0.002000       0.8347    2.0317    0.5899
   88.98   92.17  -28.10     0.002000       1.1238    2.0362    0.4366
   87.64   94.99  -28.99     0.002000       0.9902    2.0948    0.4821
   88.70   93.49  -27.92     0.002000       1.1340    2.0526    0.4292
   87.49   90.22  -26.56     0.002000       1.1813    1.9593    0.4309
  116.38   94.89  -24.47     0.002000       1.1836    3.0295    0.2777
   92.78   90.63  -28.24     0.002000       1.1416    2.0515    0.4267
   91.09   90.72  -27.12     0.002000       1.1126    1.8988    0.4725
   98.97   83.93  -25.71     0.002000       1.0471    3.2753    0.2912
   96.09   92.57  -26.20     0.002000       1.2681    1.9547    0.4020
   87.35   89.95  -26.69     0.002000       1.2188    1.9939    0.4104
   91.26   89.08  -27.94     0.002000       1.1194    2.0031    0.4455
  105.94   92.74  -24.33     0.002000       1.0231    3.7510    0.2602
   82.44  119.05  -27.80     0.002000       0.8965    1.7067    0.6524
   86.10   56.58  -28.85     0.002000       0.9153    2.0352    0.5363
   82.83   91.94  -26.02     0.002000       1.2219    1.8642    0.4374
   95.82   94.17  -25.34     0.002000       1.2555    1.8342    0.4325
  103.92   94.68  -25.70     0.002000       1.3404    1.9643    0.3782
   87.56   97.40  -29.25     0.002000       0.9685    2.0421    0.5056
   96.48  105.71  -25.60     0.002000       1.0271    2.9516    0.3294
   97.08   89.10  -26.81     0.002000       1.1797    1.9719    0.4288
   72.41   92.89  -25.72     0.002000       1.1296    2.6981    0.3267
   97.92   86.49  -24.91     0.002000       1.0136    3.8131    0.2588
   91.35   89.02  -28.31     0.002000       1.1304    2.1729    0.4070
  103.00   73.86  -27.81     0.002000       1.0865    1.9448    0.4718
   93.02  122.47  -28.86     0.002000       0.8958    1.9597    0.5691
  103.62   89.30  -24.87     0.002000       1.0338    3.5780    0.2699
   82.60  105.11  -27.48     0.002000       1.0750    2.3063    0.4022
   90.27   88.31  -29.67     0.002000       0.9978    2.3670    0.4242
  117.28   93.19  -24.86     0.002000       1.2464    2.4747    0.3224
   82.06   88.30  -26.11     0.002000       1.3239    1.9573    0.3843
   83.14   86.23  -24.00     0.002000       1.0002    4.2250    0.2370
   93.07   87.88  -28.02     0.002000       1.1206    2.0367    0.4377
   96.32   90.37  -27.34     0.002000       1.0511    1.6197    0.5865
   92.27   91.00  -27.78     0.002000       1.1608    1.9539    0.4403
   92.47  113.55  -27.27     0.002000       1.0172    2.2914    0.4282
  112.19   93.52  -25.24     0.002000       1.3016    1.9943    0.3833
   83.58   58.99  -27.95     0.002000       0.8633    2.0376    0.5681
   94.49  123.54  -28.12     0.002000       0.9345    2.0206    0.5290
   87.40   92.86  -27.74     0.002000       1.1370    2.0666    0.4251
   90.58   87.51  -17.38     0.002000       0.9856    1.4944    0.6772
   76.59   90.79  -25.34     0.002000       1.2658    1.8746    0.4194
   86.63   78.68  -25.24     0.002000       1.0191    3.4166    0.2871
   98.52  105.95  -25.30     0.002000       1.0240    2.9899    0.3262
   85.50   91.93  -26.59     0.002000       1.1722    1.9050    0.4466
   97.20   81.54  -26.12     0.002000       1.0497    3.0980    0.3071
   92.60   87.67  -27.29     0.002000       1.1695    1.9345    0.4411
   92.93   86.82  -27.58     0.002000       1.1215    2.0030    0.4445
   87.30   91.57  -26.87     0.002000       1.1523    1.9811    0.4371
   90.68   87.46  -30.22     0.002000       1.0073    2.2566    0.4407
   92.17   89.86  -28.48     0.002000       1.1236    2.1921    0.4060
   87.18   95.75  -29.90     0.002000       0.9842    2.1622    0.4703
  109.50   91.25  -24.99     0.002000       1.2718    1.9268    0.4060
   86.72   92.44  -26.82     0.002000       1.1160    1.9185    0.4660
   91.70   90.23  -28.77     0.002000       0.8995    1.8952    0.5864
   87.19   99.93  -26.64     0.002000       1.1347    1.6308    0.5391
   91.90   86.45  -29.49     0.002000       1.0056    2.1511    0.4626
   95.75  100.50  -24.77     0.002000       1.0187    3.5588    0.2758
  100.60   75.92  -27.64     0.002000       1.0853    2.2457    0.4090
   76.25   91.86  -25.10     0.002000       1.0550    3.3698    0.2807
   91.15   90.49  -27.73     0.002000       1.1237    1.9763    0.4497
   93.01   89.21  -27.81     0.002000       1.1396    2.0275    0.4323
   83.34   88.83  -26.31     0.002000       1.2953    1.9770    0.3891
   62.37   83.56  -24.92     0.002000       1.3436    2.2321    0.3318
   88.43   93.45  -27.76     0.002000       0.9952    1.9661    0.5105
  112.46   89.72  -25.64     0.002000       1.2360    2.1854    0.3682
   89.45   95.29  -28.60     0.002000       0.9741    1.9684    0.5213
   83.65   92.61  -25.86     0.002000       1.2552    1.8380    0.4318
   98.46   97.59  -24.16     0.002000       1.0046    3.9252    0.2536
   91.35   84.63  -24.59     0.002000       1.0030    4.0026    0.2494
   92.93   67.40  -18.99     0.002000       0.9998    1.4388    0.6940
   86.41   87.65  -25.82     0.002000       1.2091    1.8773    0.4390
   88.84   92.53  -27.69     0.002000       1.1220    1.9883    0.4477
   85.70   83.27  -24.33     0.002000       1.0027    4.0061    0.2492
   78.74   90.45  -24.51     0.002000       1.0123    3.9078    0.2528
   90.12   91.01  -29.28     0.002000       0.9999    2.2817    0.4387
   95.52   67.67  -28.63     0.002000       1.0128    2.1269    0.4632
   91.18   90.42  -27.36     0.002000       1.1288    1.9335    0.4574
   93.47   87.68  -27.62     0.002000       1.1188    1.9971    0.4469
   98.57   92.01  -26.10     0.002000       1.3166    1.9517    0.3876
   97.74   89.65  -20.62     0.002000       0.9406    1.5393    0.6892
   86.19   86.73  -25.39     0.002000       1.2043    1.8307    0.4519
  117.58   94.64  -25.17     0.002000       1.3327    2.3927    0.3120
   89.76   92.98  -25.88     0.002000       1.1111    1.7888    0.5018
  103.81   90.30  -25.70     0.002000       1.2977    1.8782    0.4084
   83.45  111.27  -28.26     0.002000       0.8383    1.7110    0.6962
   93.67   88.27  -26.56     0.002000       1.1295    1.9250    0.4588
   70.18   84.93  -25.49     0.002000       1.3649    2.0432    0.3569
   89.77   92.54  -26.74     0.002000       1.1811    1.9836    0.4258
   86.82   91.90  -27.37     0.002000       1.1631    1.9246    0.4458
   92.88   90.56  -27.93     0.002000       1.1481    2.1937    0.3968
   89.62   91.37  -27.76     0.002000       1.1197    1.9816    0.4501
   84.13   89.92  -26.67     0.002000       1.2231    1.9982    0.4080
   86.75   89.03  -26.44     0.002000       1.2207    1.9619    0.4163
   77.84   74.53  -24.69     0.002000       1.0170    3.1551    0.3113
   90.07   79.44  -17.40     0.002000       0.9962    1.4694    0.6815
   93.76   87.79  -27.34     0.002000       1.1292    1.9884    0.4446
   91.32   85.37  -27.83     0.002000       0.9755    1.9052    0.5375
   95.50   95.54  -24.14     0.002000       1.0010    4.1091    0.2434
   84.23   93.15  -24.54     0.002000       1.0042    4.0413    0.2467
   79.87   98.36  -26.42     0.002000       1.0917    2.7489    0.3323
   81.85  110.45  -28.48     0.002000       1.0257    1.9743    0.4927
   88.53  102.21  -26.20     0.002000       1.0429    2.9735    0.3221
   74.13   89.03  -25.32     0.002000       1.2981    1.9302    0.3971
   86.06   92.39  -27.84     0.002000       1.1269    2.0335    0.4358
   85.75   95.58  -31.07     0.002000       0.9720    2.3474    0.4393
   88.81   92.71  -27.71     0.002000       1.1230    1.9944    0.4459
   94.90   90.40  -27.31     0.002000       1.1546    1.9129    0.4519
   98.66  100.15  -24.41     0.002000       1.0146    3.6498    0.2699
   90.52   96.14  -27.98     0.002000       0.9571    1.8902    0.5523
   96.33   81.82  -25.91     0.002000       1.0410    3.2271    0.2974
   82.74   66.97  -26.42     0.002000       1.0115    2.4936    0.3958
   94.45  118.72  -27.24     0.002000       0.9986    2.1276    0.4698
   72.94   90.77  -25.14     0.002000       1.0802    3.1134    0.2964
   85.71   80.65  -24.74     0.002000       1.0108    3.7054    0.2671
   91.07   90.54  -28.19     0.002000       1.1342    2.0242    0.4352
   86.52   90.61  -24.06     0.002000       1.0000    4.3251    0.2317
   89.74  110.76  -19.57     0.002000       1.0072    1.4232    0.6967
   87.24   92.79  -27.44     0.002000       1.1451    2.0419    0.4270
  101.57   89.46  -24.64     0.002000       1.0139    3.8429    0.2566
   93.52   86.79  -27.76     0.002000       1.1277    2.0560    0.4308
   85.13   92.33  -27.23     0.002000       1.1537    1.9748    0.4380
   84.36  100.80  -26.48     0.002000       1.0620    2.8495    0.3298
   88.57   93.09  -28.10     0.002000       1.1360    2.0711    0.4247
   87.62   92.25  -27.33     0.002000       1.1573    1.9498    0.4423
   61.59   84.26  -24.50     0.002000       1.2460    2.7638    0.2890
   91.25   89.19  -27.70     0.002000       1.1172    1.9699    0.4538
   88.36   93.89  -27.44     0.002000       1.1305    1.9965    0.4423
   87.25   93.18  -27.32     0.002000       1.1277    1.9962    0.4434
   92.67   86.99  -27.77     0.002000       1.1215    2.0182    0.4412
   77.86   97.62  -26.43     0.002000       1.1098    2.6447    0.3396
   87.48   90.20  -28.40     0.002000       1.1292    2.1885    0.4046
   93.29   86.73  -25.80     0.002000       1.1098    1.8372    0.4890
   92.15   87.38  -27.92     0.002000       1.1215    2.0234    0.4402
   93.74   92.79  -24.02     0.002000       1.0001    4.2965    0.2331
   87.27   92.11  -26.91     0.002000       1.1421    1.9758    0.4422
  104.17   92.14  -24.34     0.002000       1.0122    3.8574    0.2559
   92.36   86.96  -28.18     0.002000       1.1265    2.0596    0.4306
   91.95   89.16  -27.85     0.002000       1.1196    1.9938    0.4475
   89.34   94.30  -28.84     0.002000       0.9989    2.1307    0.4699
   89.60   94.42  -27.26     0.002000       0.9888    1.8911    0.5340
   87.16   91.84  -27.77     0.002000       1.1443    1.9557    0.4462
   92.49   89.04  -28.03     0.002000       1.1344    2.0131    0.4374
  108.71   84.46  -26.29     0.002000       1.2047    2.1848    0.3780
   71.69   87.36  -24.35     0.002000       1.0541    3.5237    0.2686
   88.80   81.64  -24.90     0.002000       1.0103    3.7390    0.2649
   92.58   86.49  -27.62     0.002000       1.1294    2.0231    0.4370
   84.54   85.55  -25.09     0.002000       1.1886    1.8070    0.4639
   89.09   92.66  -26.49     0.002000       0.9877    1.8409    0.5489
   91.66  109.50  -26.94     0.002000       1.0312    2.4677    0.3922
   97.61   94.97  -25.29     0.002000       0.8814    1.6832    0.6731
   65.92   56.97  -21.96     0.002000       0.9918    1.9661    0.5124
   86.94   94.28  -29.73     0.002000       0.9934    2.2652    0.4449
   87.64   93.41  -26.79     0.002000       1.1281    1.9389    0.4562
   91.23   96.96  -30.00     0.002000       0.8538    1.9622    0.5969
   93.68   87.58  -27.18     0.002000       1.1301    1.9940    0.4429
  112.59   93.03  -25.38     0.002000       1.3439    2.0971    0.3530
   75.83   82.89  -23.90     0.002000       1.0075    3.8977    0.2545
   92.73   69.84  -27.81     0.002000       1.0273    2.3300    0.4169
   88.15   91.86  -27.64     0.002000       1.1628    2.1208    0.4050
   64.28   87.65  -24.74     0.002000       1.2034    2.5184    0.3281
   92.93   86.77  -27.07     0.002000       1.1166    1.9358    0.4617
   85.74   96.02  -27.28     0.002000       1.1449    1.6977    0.5132
   90.52   92.89  -30.19     0.002000       0.9861    2.2860    0.4444
   75.21   82.35  -23.86     0.002000       1.0107    3.8474    0.2570
   64.07   84.81  -24.31     0.002000       1.1774    3.0896    0.2738
   98.76   79.91  -26.75     0.002000       1.0698    2.7448    0.3398
  117.17   94.52  -25.24     0.002000       1.3405    2.3560    0.3150
   80.56   84.71  -24.00     0.002000       1.0005    4.0972    0.2441
   94.36   81.55  -25.69     0.002000       1.0295    3.3692    0.2882
   90.05   91.08  -28.28     0.002000       1.1270    2.0231    0.4383
   88.07   93.00  -26.95     0.002000       1.1150    1.9098    0.4686
   88.03   92.91  -27.32     0.002000       1.1196    1.9554    0.4560
  109.50   90.66  -25.02     0.002000       1.0860    3.0279    0.3029
   99.99   81.02  -26.57     0.002000       1.0092    1.6329    0.6055
   90.31   94.10  -30.12     0.002000       0.9378    2.0819    0.5126
   93.66   57.46  -31.03     0.002000       0.8712    1.9074    0.6012
   72.68   86.85  -25.73     0.002000       1.3595    2.0504    0.3571
  102.13   73.01  -28.04     0.002000       1.0699    1.9581    0.4759
   95.16   88.03  -27.22     0.002000       1.1448    1.9802    0.4402
   96.08   99.96  -24.65     0.002000       1.0161    3.6342    0.2708
   83.25   92.85  -26.23     0.002000       1.2957    1.9041    0.4037
  101.34   71.29  -28.26     0.002000       1.0453    1.9265    0.4953
   87.58   93.45  -27.45     0.002000       1.1267    2.0021    0.4426
   97.87   73.74  -27.82     0.002000       1.0591    2.2786    0.4133
   87.22   96.31  -29.24     0.002000       0.9785    2.0887    0.4893
   97.62   84.58  -25.34     0.002000       1.0287    3.5362    0.2748
   89.60   60.93  -29.71     0.002000       0.8368    1.9230    0.6210
   83.70   96.76  -26.75     0.002000       1.2774    1.7998    0.4332
   89.43   91.77  -27.75     0.002000       1.1205    1.9841    0.4492
   88.67   93.65  -27.01     0.002000       1.1488    1.9938    0.4357
   96.78   92.69  -24.04     0.002000       1.0001    4.2454    0.2358
   83.36   69.53  -26.25     0.002000       1.0167    2.6293    0.3735
  116.03   93.05  -24.72     0.002000       1.1895    2.7435    0.3048
   88.01   94.16  -28.38     0.002000       0.9938    2.0344    0.4943
  101.48  112.39  -25.46     0.002000       1.0123    2.5660    0.3843
   95.39   93.15  -24.03     0.002000       1.0001    4.2580    0.2352
   94.58   89.51  -26.78     0.002000       1.1530    1.9725    0.4386
   92.74   86.31  -27.35     0.002000       1.1293    2.0025    0.4414
   93.76   82.80  -29.64     0.002000       0.9611    2.1076    0.4938
  102.71   87.21  -25.30     0.002000       1.0494    3.3649    0.2827
  111.61   88.25  -25.68     0.002000       1.1983    2.3292    0.3564
   96.13   88.96  -27.11     0.002000       1.1626    2.0083    0.4274
  107.68   87.33  -25.73     0.002000       1.1141    2.7652    0.3233
   98.93   94.64  -24.03     0.002000       1.0004    4.1273    0.2424
   95.86   88.29  -27.36     0.002000       1.1437    2.0113    0.4339
   88.97   88.05  -24.03     0.002000       1.0000    4.3393    0.2309
   90.39   90.31  -27.79     0.002000       1.1186    1.9791    0.4512
   91.32   88.88  -27.58     0.002000       1.1162    1.9563    0.4573
   90.07  101.07  -28.36     0.002000       0.8555    1.8415    0.6342
   92.74   88.98  -27.60     0.002000       1.1245    1.9704    0.4506
   89.60   89.56  -29.45     0.002000       0.9993    2.3317    0.4298
   76.32   88.34  -25.82     0.002000       1.3151    1.9300    0.3922
   87.08   92.47  -26.75     0.002000       1.1120    1.8984    0.4726
   66.26   87.77  -25.03     0.002000       1.2992    2.0963    0.3651
  115.83   91.99  -24.89     0.002000       1.2444    2.2517    0.3548
   79.07  101.58  -27.15     0.002000       1.1093    2.3483    0.3826
   87.90   88.04  -28.35     0.002000       0.9496    2.0198    0.5210
   91.42   88.68  -28.01     0.002000       1.1202    2.0152    0.4425
   82.76   83.02  -22.96     0.002000       0.9331    1.6030    0.6673
   92.93   87.24  -27.52     0.002000       1.1286    1.9991    0.4425
   88.32   91.17  -28.01     0.002000       1.1413    2.0479    0.4274
   75.43   89.85  -24.68     0.002000       1.0363    3.5902    0.2684
   87.94   95.17  -25.71     0.002000       1.1089    1.7959    0.5007
   91.32   90.43  -27.43     0.002000       1.1253    1.9399    0.4573
   94.10  113.89  -27.00     0.002000       1.0153    2.3213    0.4235
   97.84   92.57  -24.05     0.002000       1.0002    4.2225    0.2370
   91.11   88.38  -27.69     0.002000       1.1245    1.9787    0.4488
   62.69   85.78  -25.11     0.002000       1.3160    2.4790    0.3050
   88.99   92.47  -27.00     0.002000       1.1804    1.9063    0.4434
   86.95   82.39  -23.18     0.002000       1.2302    1.6563    0.4886
   87.14   92.63  -27.84     0.002000       1.1386    2.1124    0.4153
   89.38   91.96  -27.26     0.002000       1.1155    1.9228    0.4654
   86.72   90.12  -28.19     0.002000       1.1424    2.0925    0.4180
   90.10   97.55  -24.83     0.002000       1.0132    3.7801    0.2613
   80.46  102.74  -27.27     0.002000       1.0951    2.3517    0.3871
   84.19   92.32  -26.56     0.002000       1.1881    1.9128    0.4387
   93.32   85.52  -28.87     0.002000       0.9884    2.0964    0.4825
   74.89   87.84  -24.31     0.002000       1.0213    3.7952    0.2577
   91.45   96.34  -30.24     0.002000       0.8537    2.0953    0.5593
   89.12   92.06  -27.83     0.002000       1.1217    1.9994    0.4454
   94.04   88.35  -27.31     0.002000       1.1341    1.9585    0.4494
   86.63   79.33  -25.10     0.002000       1.0169    3.5036    0.2807
   92.95   84.27  -28.66     0.002000       0.9773    2.0115    0.5084
   92.65   63.35  -28.90     0.002000       0.9872    2.1087    0.4795
   78.02   89.91  -24.47     0.002000       1.0129    3.8945    0.2535
   91.08   93.29  -21.47     0.002000       1.0514    1.6141    0.5872
  115.37   94.13  -25.43     0.002000       1.3596    2.2654    0.3231
   89.48   94.71  -28.62     0.002000       0.9940    2.0079    0.5008
  103.25   89.61  -24.77     0.002000       1.0266    3.6630    0.2656
   99.03   82.26  -26.74     0.002000       1.2591    1.7904    0.4418
   97.53   91.81  -26.25     0.002000       1.2556    1.8682    0.4249
  118.07   95.71  -25.03     0.002000       1.3419    2.3046    0.3218
   89.06   94.18  -28.84     0.002000       1.0038    2.0857    0.4776
   87.37   90.42  -26.68     0.002000       1.1791    1.9747    0.4284
   89.88   91.00  -29.83     0.002000       0.9846    2.4072    0.4227
   86.94   82.54  -24.53     0.002000       1.0052    3.9072    0.2548
   89.65   92.07  -29.20     0.002000       1.0097    2.0868    0.4747
   88.20   93.70  -27.89     0.002000       1.1290    2.0473    0.4322
   83.34  117.52  -30.07     0.002000       0.9212    1.8614    0.5824
   94.02   87.84  -28.14     0.002000       1.1369    2.1305    0.4126
   82.82   99.69  -26.41     0.002000       1.0701    2.8578    0.3263
   90.92   89.07  -27.63     0.002000       1.1293    1.9708    0.4486
   87.71   90.56  -26.61     0.002000       1.1182    1.8621    0.4791
   93.85   87.61  -27.32     0.002000       1.1303    2.0124    0.4388
   94.77   88.65  -27.35     0.002000       1.1486    2.0416    0.4257
   87.28   92.45  -26.97     0.002000       1.1378    1.9773    0.4435
  102.20   92.61  -24.18     0.002000       1.0024    4.0609    0.2457
   90.49   89.85  -28.31     0.002000       1.1240    2.0367    0.4365
   88.93   92.89  -26.75     0.002000       1.1194    1.8777    0.4747
   86.05   86.01  -24.08     0.002000       1.0002    4.2374    0.2364
   89.06   91.87  -27.45     0.002000       1.1173    1.9473    0.4589
   98.19   99.75  -24.41     0.002000       1.0135    3.6901    0.2673
   69.37   78.44  -23.56     0.002000       1.0486    3.3663    0.2827
   77.09  104.51  -26.76     0.002000       1.1560    1.7774    0.4850
   89.56   99.28  -25.31     0.002000       1.0245    3.4879    0.2798
   76.72   87.62  -25.86     0.002000       1.3364    1.9980    0.3728
   87.85   93.26  -28.81     0.002000       0.9976    2.1401    0.4684
   95.29   81.07  -25.96     0.002000       1.0382    3.2120    0.2996
   94.16   89.26  -26.98     0.002000       1.1604    2.0055    0.4288
   97.21   78.54  -26.88     0.002000       1.0604    2.7221    0.3457
   93.58   87.86  -27.06     0.002000       1.1349    1.9875    0.4424
   86.57  121.21  -30.17     0.002000       0.9168    1.9329    0.5636
   64.14   87.43  -25.02     0.002000       1.2887    2.2659    0.3405
  107.26   89.90  -25.06     0.002000       1.0671    3.2053    0.2915
   72.48   87.63  -24.38     0.002000       1.0456    3.5531    0.2686
   90.26   56.99  -29.74     0.002000       0.9279    1.9965    0.5392
   88.55   90.89  -28.18     0.002000       1.1281    1.9912    0.4448
   90.15   90.59  -27.86     0.002000       1.1398    1.9982    0.4385
   92.94   60.16  -29.72     0.002000       0.9549    2.0298    0.5152
  110.97   94.93  -24.07     0.002000       1.0779    3.5459    0.2609
   91.39   88.43  -26.60     0.002000       1.1018    1.8462    0.4905
   95.35   95.60  -24.15     0.002000       1.0011    4.1033    0.2437
   90.78   89.65  -27.66     0.002000       1.1170    1.9629    0.4555
   90.07   94.93  -27.12     0.002000       0.9883    1.8864    0.5355
   65.93   84.72  -25.31     0.002000       1.3648    2.1441    0.3401
   94.66   87.26  -27.97     0.002000       1.1239    2.0468    0.4342
  112.09   91.79  -24.83     0.002000       1.1093    2.8730    0.3123
   92.98   70.50  -27.75     0.002000       1.0304    2.3522    0.4117
   78.19   87.98  -25.73     0.002000       1.3091    1.9474    0.3905
   91.95   64.79  -28.48     0.002000       0.9993    2.1693    0.4605
   97.37   87.96  -26.34     0.002000       0.8473    1.7029    0.6921
   96.16   80.97  -26.12     0.002000       1.0447    3.1172    0.3067
   78.17   98.73  -26.64     0.002000       1.1134    2.5433    0.3519
   88.18   90.01  -27.95     0.002000       1.1489    2.0324    0.4278
   75.90   94.16  -25.75     0.002000       1.0952    2.9308    0.3106
   97.74   78.76  -27.12     0.002000       1.0827    1.6509    0.5581
   89.11   90.15  -28.03     0.002000       1.1515    2.0084    0.4319
   99.65   90.68  -25.82     0.002000       1.2616    1.9128    0.4127
  103.37   79.28  -26.86     0.002000       1.2142    1.8227    0.4501
   79.77  105.07  -25.40     0.002000       0.9058    1.5968    0.6902
   90.02   87.89  -29.87     0.002000       0.9367    2.0655    0.5171
   93.50   88.23  -28.10     0.002000       1.1219    2.0384    0.4369
   95.24   99.09  -24.59     0.002000       1.0130    3.7341    0.2644
   92.72   87.07  -27.55     0.002000       1.1196    1.9872    0.4488
   92.61   88.27  -28.06     0.002000       1.1350    2.0644    0.4264
   95.30  100.32  -24.80     0.002000       1.0185    3.5715    0.2749
   95.21   90.79  -26.52     0.002000       1.2055    1.9731    0.4192
   88.49   92.16  -25.57     0.002000       1.1327    1.8389    0.4786
   93.33   87.11  -27.47     0.002000       1.1292    2.0117    0.4395
   63.80   86.03  -25.30     0.002000       1.3421    2.3640    0.3136
   87.39   91.24  -24.08     0.002000       1.0000    4.3198    0.2320
   84.73  110.08  -28.03     0.002000       1.0390    2.1470    0.4472
   87.34   96.87  -24.48     0.002000       1.1523    1.6726    0.5171
   83.09   88.49  -26.22     0.002000       1.2716    1.9706    0.3976
  107.87   99.13  -23.73     0.002000       1.0270    3.6494    0.2664
   93.98   87.40  -27.50     0.002000       1.1245    2.0192    0.4397
   87.97   95.20  -28.79     0.002000       0.9887    2.0469    0.4940
  113.02   92.06  -25.21     0.002000       1.2664    2.0471    0.3837
   93.30   88.89  -27.12     0.002000       1.1729    2.0280    0.4196
   90.97   79.84  -25.62     0.002000       1.0230    3.3660    0.2903
   91.44   87.84  -26.98     0.002000       1.1816    2.0099    0.4201
   95.10   89.85  -26.69     0.002000       1.1737    1.9724    0.4308
   93.24   88.90  -29.17     0.002000       0.8537    1.8691    0.6264
  109.41   95.41  -23.97     0.002000       1.0529    3.6739    0.2579
   87.82  107.82  -27.30     0.002000       1.0446    2.4085    0.3966
   92.11   86.60  -27.25     0.002000       1.1471    2.0311    0.4284
   94.38   87.85  -24.32     0.002000       1.0004    4.1870    0.2391
  103.47   71.60  -27.33     0.002000       1.0666    1.7616    0.5307
   69.02   90.87  -25.42     0.002000       1.1588    2.5456    0.3373
   92.23  121.09  -28.22     0.002000       0.9707    2.0501    0.5017
   88.22   93.24  -28.13     0.002000       1.1326    2.0482    0.4307
   94.88   84.01  -30.49     0.002000       0.9669    2.2449    0.4613
   89.77   93.96  -27.36     0.002000       1.0904    1.6501    0.5548
   90.88   89.56  -27.60     0.002000       1.1424    1.9667    0.4444
   86.86   92.96  -27.54     0.002000       1.1280    2.0241    0.4373
   85.90   93.85  -24.52     0.002000       1.0034    4.0561    0.2460
   91.44   72.01  -27.28     0.002000       1.0322    2.5094    0.3853
   80.17   91.49  -24.59     0.002000       1.0116    3.9224    0.2521
   92.64   85.03  -29.56     0.002000       0.9932    2.1473    0.4692
   87.44   93.79  -25.09     0.002000       1.0953    1.7749    0.5128
   72.55   80.83  -23.72     0.002000       1.0270    3.6716    0.2648
   81.70   90.12  -24.24     0.002000       1.0008    4.1626    0.2403
   92.79   85.38  -28.53     0.002000       0.9874    2.0216    0.5007
   77.48   80.63  -24.02     0.002000       1.0090    3.7568    0.2637
   91.73   89.21  -27.19     0.002000       1.1479    1.9230    0.4521
   76.57   89.47  -24.51     0.002000       1.0204    3.7846    0.2587
   93.58   88.50  -26.73     0.002000       1.1386    1.9520    0.4488
   87.35  121.73  -30.12     0.002000       0.9201    1.9485    0.5571
   85.97  102.89  -28.60     0.002000       0.8265    1.7707    0.6826
   89.23   92.37  -27.84     0.002000       1.1233    2.0044    0.4436
   93.58   91.59  -25.65     0.002000       1.1682    1.8515    0.4608
   89.13   89.92  -28.15     0.002000       1.1363    2.0015    0.4393
   87.98   92.06  -28.02     0.002000       1.1247    2.0300    0.4375
   88.66   93.79  -27.84     0.002000       1.1329    2.0436    0.4314
   63.55   85.82  -24.66     0.002000       1.2170    2.9123    0.2809
  106.75   80.89  -26.78     0.002000       1.2023    2.0225    0.4094
   85.44   92.11  -26.32     0.002000       1.1938    1.8749    0.4454
   84.29   92.68  -24.45     0.002000       1.0024    4.0981    0.2437
   91.71   87.54  -27.61     0.002000       1.1233    1.9794    0.4491
   97.00   92.60  -26.23     0.002000       1.2863    1.9719    0.3929
   70.80   90.25  -25.16     0.002000       1.1045    2.9151    0.3093
  100.73   75.42  -27.72     0.002000       1.0843    2.2025    0.4175
   83.00   88.11  -24.01     0.002000       1.0001    4.2724    0.2344
   86.90   92.51  -27.10     0.002000       1.1324    1.9858    0.4438
   92.39   93.91  -28.08     0.002000       1.1694    1.8799    0.4540
   93.45   88.95  -27.00     0.002000       1.2172    1.9656    0.4169
   80.11   90.30  -24.38     0.002000       1.0042    4.0503    0.2460
   91.39   69.50  -27.65     0.002000       1.0245    2.3678    0.4114
   95.18   95.04  -24.70     0.002000       1.1987    1.7723    0.4689
   98.46   79.61  -26.78     0.002000       1.0682    2.7360    0.3414
   66.49   87.60  -24.59     0.002000       1.1368    2.8261    0.3097
   91.00   90.05  -26.87     0.002000       1.2143    2.0103    0.4086
   94.16   89.76  -27.93     0.002000       1.1348    1.9753    0.4456
   93.63   88.34  -27.91     0.002000       1.1322    2.0128    0.4383
  110.86   89.33  -25.42     0.002000       1.1369    2.6510    0.3302
   85.36   85.68  -24.07     0.002000       1.0002    4.2138    0.2376
   89.03   94.25  -25.31     0.002000       1.0978    1.7482    0.5196
   86.17  108.50  -27.62     0.002000       1.0466    2.2906    0.4162
   89.88   90.07  -29.73     0.002000       0.9463    2.0864    0.5067
  123.77  101.32  -23.50     0.002000       1.3334    1.9144    0.3899
   96.70   93.18  -24.03     0.002000       1.0001    4.2348    0.2364
   94.89   86.17  -27.49     0.002000       1.0824    1.6609    0.5552
   90.09   91.11  -27.32     0.002000       1.1815    1.8962    0.4455
  106.03   87.95  -26.12     0.002000       1.3038    1.9308    0.3953
   95.00   92.95  -24.03     0.002000       1.0001    4.2766    0.2342
   88.83   91.57  -28.09     0.002000       1.1387    2.0511    0.4278
   87.38   90.09  -26.26     0.002000       1.1643    1.9139    0.4474
   88.05   83.91  -23.36     0.002000       1.2072    1.6722    0.4932
   86.13   91.12  -27.16     0.002000       1.1711    2.0271    0.4204
   87.52   91.73  -27.02     0.002000       1.1590    2.0059    0.4292
   91.05   95.06  -25.93     0.002000       0.9535    1.7614    0.5944
