MORPHOLOGY AT STRAIN =    1.0000  FOR PHASE  1
   1.046   2.336   0.409  <-- AXES OF PHASE ELLIPSOID
 -154.08   90.00   90.00  <-- EULER ANGLES OF PHASE ELLIPSOID (deg)
   1.070   2.584   0.398  <-- AVERAGE OF GRAIN AXES FOR PHASE
   0.155   0.305   0.306  <-- STANDARD DEV OF AVG GRAIN AXES FOR PHASE
B       500
  116.75  126.68  -19.49     0.002000       1.0551    2.0433    0.4649
   77.23  110.87  -27.38     0.002000       1.0200    3.1630    0.3053
   71.85   90.95  -26.19     0.002000       1.0079    3.8411    0.2526
   93.69   90.18  -25.82     0.002000       1.2979    2.0321    0.3788
   80.36   92.88  -25.92     0.002000       1.2192    2.1872    0.3744
   93.47   86.66  -26.02     0.002000       1.0001    4.6713    0.2070
   91.83   88.40  -30.33     0.002000       1.1400    1.8319    0.4813
   99.71   77.94  -26.71     0.002000       1.0038    4.0088    0.2422
  100.08   89.79  -24.88     0.002000       1.3457    2.2373    0.3302
   75.64   63.38  -23.93     0.002000       1.0284    3.0169    0.3193
   77.53   86.49  -25.61     0.002000       1.0011    4.2092    0.2310
   88.10   95.60  -25.94     0.002000       1.0002    4.6199    0.2093
   97.44   83.15  -23.76     0.002000       0.8991    1.9162    0.5812
   77.23  102.30  -26.39     0.002000       1.1244    1.7940    0.4962
   86.69  102.63  -24.19     0.002000       0.7386    2.4146    0.5599
   96.26   87.12  -36.16     0.002000       0.9548    1.8530    0.5715
   85.21   82.80  -25.80     0.002000       1.0006    4.5718    0.2119
   76.34   49.39  -23.40     0.002000       0.8290    2.2613    0.5357
   81.55   76.36  -27.17     0.002000       0.7125    2.3714    0.5942
   94.70  111.66  -25.14     0.002000       1.0025    3.5989    0.2718
  103.84   65.60  -27.16     0.002000       0.8921    2.2006    0.5084
   72.91  104.69  -28.18     0.002000       1.0475    3.3596    0.2796
   93.22   99.11  -25.57     0.002000       1.0007    4.4275    0.2188
   71.83   96.12  -26.79     0.002000       1.0190    3.7013    0.2596
   89.04   90.60  -26.11     0.002000       1.2140    2.1462    0.3837
   78.48  108.76  -21.51     0.002000       1.1613    1.7310    0.4981
   85.06   93.48  -23.82     0.002000       1.1375    2.3151    0.3780
  111.45   88.87  -26.27     0.002000       1.4183    2.2614    0.3097
   96.37   85.50  -38.11     0.002000       0.9972    1.8681    0.5433
   62.86   89.61  -24.11     0.002000       1.4162    2.3254    0.3004
   86.04   93.68  -23.88     0.002000       1.1335    2.2455    0.3916
  115.84   80.39  -28.05     0.002000       1.1580    2.7215    0.3140
  114.99   85.85  -26.14     0.002000       1.4171    2.1337    0.3286
  104.33   80.81  -36.80     0.002000       0.9382    1.9225    0.5603
   61.00   85.73  -24.90     0.002000       1.3519    2.6561    0.2750
  111.40   73.54  -28.09     0.002000       1.1150    2.0098    0.4458
   69.73  101.82  -27.78     0.002000       1.0743    3.1251    0.2935
   90.53  130.49  -26.76     0.002000       0.8106    2.6591    0.4629
   91.98   81.84  -23.68     0.002000       0.8315    2.3768    0.5052
   94.67   83.42  -26.46     0.002000       1.0992    1.7121    0.5329
   93.40   54.88  -26.71     0.002000       0.9099    2.9331    0.3713
   95.23   82.87  -23.79     0.002000       1.1605    2.2665    0.3785
   83.60   92.38  -26.13     0.002000       1.2628    2.1491    0.3678
  117.76  100.02  -23.70     0.002000       1.3548    2.5477    0.2864
   76.53   91.78  -25.54     0.002000       1.4403    2.0933    0.3299
   86.65   86.89  -27.26     0.002000       1.0796    1.6323    0.5699
  102.60  123.90  -22.99     0.002000       0.9933    2.7435    0.3645
   82.86   93.98  -26.10     0.002000       1.2254    2.2014    0.3701
  119.60   92.69  -25.12     0.002000       1.4002    2.4977    0.2827
  111.23  106.19  -23.87     0.002000       1.0774    3.2638    0.2803
   98.54  104.95  -24.93     0.002000       1.0019    3.9662    0.2456
   85.16   91.23  -24.46     0.002000       1.1652    2.3673    0.3607
   78.11  104.47  -25.17     0.002000       1.0672    1.8782    0.4986
  103.60   86.77  -26.29     0.002000       1.0012    4.1468    0.2345
   85.59   56.00  -24.78     0.002000       0.7867    2.7377    0.4633
   79.75   88.34  -30.76     0.002000       0.7358    2.1644    0.6320
   97.73   78.12  -29.01     0.002000       0.8353    2.3172    0.5185
  118.07   86.53  -27.37     0.002000       1.1958    2.9394    0.2809
   91.77   93.13  -25.73     0.002000       1.0001    4.6750    0.2066
   94.10   97.72  -22.50     0.002000       0.9394    1.7867    0.5970
   83.58   89.14  -25.78     0.002000       1.0003    4.5478    0.2128
   88.70   90.79  -26.26     0.002000       1.3155    2.0922    0.3627
   92.32   98.18  -29.55     0.002000       0.8177    2.4223    0.5074
   97.65   89.74  -25.63     0.002000       1.0004    4.5226    0.2137
   93.67   89.55  -24.56     0.002000       1.2602    2.1268    0.3720
   77.51   91.96  -25.49     0.002000       1.3580    2.2017    0.3326
   70.80   97.58  -27.11     0.002000       1.0371    3.5212    0.2687
   75.23  107.74  -26.46     0.002000       0.9968    2.1584    0.4633
   79.28  115.30  -28.08     0.002000       1.0161    3.1058    0.3127
   84.74  101.42  -22.60     0.002000       0.8040    2.1602    0.5753
   91.65   87.26  -26.59     0.002000       1.0822    1.6928    0.5478
   86.51   93.21  -27.48     0.002000       1.2049    2.0995    0.3956
   84.70   78.54  -25.63     0.002000       1.0011    4.2944    0.2263
   93.61   83.95  -25.24     0.002000       0.9033    2.4336    0.4545
   83.34  102.57  -26.37     0.002000       1.0028    4.1337    0.2345
   85.40   84.01  -25.61     0.002000       1.0004    4.5218    0.2141
   67.19   88.22  -25.94     0.002000       1.0651    3.4820    0.2648
   61.69   88.47  -25.78     0.002000       1.2640    2.8781    0.2711
   81.78   91.41  -25.42     0.002000       1.3266    2.2424    0.3345
   69.25   96.51  -27.27     0.002000       1.0522    3.4350    0.2719
   75.98   92.90  -26.83     0.002000       1.3545    2.1556    0.3413
   92.40   76.03  -26.34     0.002000       1.0013    4.2270    0.2299
   77.98   77.15  -25.06     0.002000       1.0044    3.9188    0.2486
   81.47   91.37  -24.16     0.002000       1.2724    2.1504    0.3639
   91.48   87.66  -25.82     0.002000       1.0000    4.6645    0.2071
   80.05   91.53  -25.77     0.002000       1.2549    2.2100    0.3596
   89.13   92.56  -28.04     0.002000       1.2106    2.0559    0.4025
   91.09   80.43  -22.63     0.002000       0.8071    2.3714    0.5217
   71.71  101.32  -28.58     0.002000       1.2108    1.8955    0.4360
   96.93   84.40  -29.79     0.002000       1.1030    1.7205    0.5298
   70.79   92.23  -25.79     0.002000       1.0098    3.6965    0.2621
   82.54   73.44  -25.19     0.002000       1.0020    3.9175    0.2490
   83.67   86.93  -39.15     0.002000       0.9286    1.6679    0.6534
   71.72  110.75  -28.40     0.002000       1.0421    2.6487    0.3592
   85.02   93.09  -25.51     0.002000       1.1915    2.2219    0.3770
  108.38   80.89  -27.47     0.002000       1.0259    3.5947    0.2660
  109.00  111.18  -22.49     0.002000       1.0124    3.0939    0.3152
   87.35   93.56  -29.95     0.002000       0.9626    2.1772    0.4801
  104.69  114.23  -28.97     0.002000       0.7906    1.9059    0.6694
   88.91   94.00  -30.58     0.002000       1.1278    1.8564    0.4802
   82.18   99.14  -28.32     0.002000       0.9260    2.3542    0.4600
   88.25   92.05  -29.09     0.002000       1.1838    2.0162    0.4202
   75.46   89.21  -25.03     0.002000       1.4314    2.2111    0.3137
  119.48   92.26  -25.66     0.002000       1.2214    2.9797    0.2707
   88.25   91.04  -24.17     0.002000       1.0174    1.7449    0.5644
   87.57   92.34  -24.44     0.002000       1.1918    2.1962    0.3809
   96.13   73.20  -26.92     0.002000       1.0041    3.9480    0.2464
  115.31   92.04  -25.02     0.002000       1.4431    2.3232    0.2955
   71.22   97.34  -27.83     0.002000       1.3451    1.9915    0.3726
   96.27   89.17  -26.26     0.002000       1.2083    2.1012    0.3940
  112.28   86.02  -27.26     0.002000       1.0418    3.6106    0.2610
   91.85  122.00  -24.81     0.002000       0.7510    2.7389    0.4848
   70.11   49.68  -22.66     0.002000       0.9368    1.9975    0.5374
   79.80  105.36  -25.34     0.002000       0.9080    2.0011    0.5505
   85.15   97.82  -23.76     0.002000       1.4125    1.9812    0.3557
  118.47   94.27  -24.46     0.002000       1.4470    2.3185    0.2951
   82.63   98.16  -29.83     0.002000       0.8313    2.4144    0.5004
  109.10  109.93  -23.61     0.002000       1.0495    3.2509    0.2891
  105.80   75.69  -27.50     0.002000       1.0204    1.8702    0.5248
   76.05  112.78  -28.05     0.002000       1.0228    2.9952    0.3223
   97.89   79.96  -26.39     0.002000       1.0013    4.2070    0.2308
   90.30   91.69  -29.94     0.002000       1.1186    1.7798    0.5049
   93.59   51.30  -28.36     0.002000       0.8499    2.7963    0.4188
  101.29  116.77  -24.20     0.002000       0.7404    2.4792    0.5461
  105.82   79.53  -27.12     0.002000       1.0154    3.7135    0.2595
   90.05  122.67  -26.36     0.002000       0.9877    3.0328    0.3302
   91.83   88.48  -35.00     0.002000       0.9989    2.0672    0.4895
  117.50   82.35  -27.29     0.002000       1.1775    2.8236    0.2970
   65.95  102.79  -28.05     0.002000       1.1813    2.1577    0.3910
   76.81   87.94  -25.91     0.002000       1.0012    4.2365    0.2296
   95.55   86.49  -30.15     0.002000       1.1370    1.8689    0.4729
   94.00   85.70  -23.06     0.002000       0.8526    2.3068    0.5077
   85.80   87.83  -23.76     0.002000       0.9813    1.7465    0.5848
  106.60  121.32  -22.52     0.002000       1.0223    2.6893    0.3615
  115.90   76.01  -27.70     0.002000       1.1447    2.4857    0.3487
   77.83   76.50  -30.47     0.002000       0.7904    2.2201    0.5743
  109.85  128.25  -22.00     0.002000       0.8800    2.2553    0.5059
   87.57   89.78  -26.65     0.002000       1.2348    2.1224    0.3816
   87.71   95.16  -12.58     0.002000       0.9598    1.3465    0.7788
   74.33  105.89  -26.45     0.002000       1.0284    2.1252    0.4561
   76.76   75.14  -24.89     0.002000       1.0095    3.8226    0.2539
  111.36  109.09  -23.31     0.002000       1.0851    3.0535    0.2982
   79.15   96.17  -27.31     0.002000       1.3242    1.9720    0.3824
   92.42   70.48  -26.40     0.002000       1.0029    3.7575    0.2598
  102.49   85.83  -27.02     0.002000       1.0859    1.7606    0.5246
  101.07   87.53  -25.96     0.002000       1.2659    2.2027    0.3577
   76.79   89.14  -25.20     0.002000       1.3729    2.2670    0.3193
   97.76   85.61  -39.14     0.002000       1.0242    1.7321    0.5705
   89.94   90.33  -26.10     0.002000       1.0669    1.6712    0.5628
   77.63   99.79  -35.89     0.002000       0.9492    1.9072    0.5580
  116.34   77.39  -28.64     0.002000       1.1815    2.3410    0.3597
   80.66   91.03  -23.91     0.002000       1.3172    2.1143    0.3573
   89.14   95.71  -25.40     0.002000       0.7752    2.4303    0.5311
   88.84   98.02  -24.72     0.002000       0.7864    2.4746    0.5133
   98.81   84.36  -32.67     0.002000       1.0249    2.0469    0.4807
  106.44  102.02  -24.71     0.002000       1.0097    3.7560    0.2583
   94.25   56.06  -27.65     0.002000       0.9636    2.9105    0.3535
   76.18  103.41  -27.54     0.002000       1.0210    3.7250    0.2575
   93.08   90.06  -25.60     0.002000       1.2809    2.0633    0.3778
   92.88   90.50  -27.44     0.002000       1.2050    2.1057    0.3945
   69.59  106.87  -28.16     0.002000       1.0830    2.0782    0.4437
   65.35   81.90  -23.98     0.002000       1.4178    2.4508    0.2846
   87.19   95.64  -24.05     0.002000       0.8750    2.4805    0.4596
  106.25   64.96  -27.83     0.002000       0.9822    2.6669    0.3785
   83.90   99.03  -31.57     0.002000       0.8878    2.1301    0.5327
   81.96  108.08  -25.04     0.002000       0.8462    2.1819    0.5410
  108.37   95.95  -25.29     0.002000       1.0061    3.8684    0.2513
   87.68   81.66  -25.89     0.002000       1.0005    4.5734    0.2118
   90.99   81.07  -18.56     0.002000       0.9641    1.2566    0.8321
   85.61   85.26  -23.04     0.002000       1.4112    2.1396    0.3285
   80.36   91.60  -25.71     0.002000       1.2033    2.1775    0.3812
   78.28   82.77  -25.32     0.002000       1.0014    4.1716    0.2331
   75.07   96.52  -26.89     0.002000       1.0056    4.0117    0.2420
   89.53   90.89  -30.10     0.002000       0.9998    2.3417    0.4295
   85.34   53.70  -26.01     0.002000       0.9679    2.8405    0.3615
   87.89   89.43  -25.89     0.002000       1.3068    2.0352    0.3757
  101.04   88.62  -25.63     0.002000       1.2719    2.1991    0.3563
  114.80   76.00  -28.53     0.002000       1.1583    2.1663    0.3974
   91.71   81.26  -26.49     0.002000       0.7755    2.4760    0.5214
   90.49   83.38  -21.85     0.002000       1.3268    2.0692    0.3619
  121.55   91.31  -25.35     0.002000       1.2748    2.8218    0.2739
   85.17   96.78  -21.95     0.002000       1.0591    2.1613    0.4356
  102.51   67.86  -26.24     0.002000       0.9283    2.2536    0.4764
   94.01  125.99  -27.07     0.002000       0.7540    2.5409    0.5232
   98.63   91.73  -23.28     0.002000       1.2693    2.2384    0.3497
   64.13   85.02  -24.49     0.002000       1.4384    2.4059    0.2858
   87.21   91.39  -26.10     0.002000       1.3921    2.0317    0.3526
   84.27   92.47  -24.45     0.002000       0.9749    1.7248    0.5966
   91.38   87.36  -28.82     0.002000       1.1211    1.7347    0.5166
   83.57   90.28  -25.89     0.002000       1.2275    2.0941    0.3889
   74.37  107.23  -27.14     0.002000       1.0156    1.9353    0.5091
   70.22   88.70  -25.15     0.002000       1.4420    2.2806    0.3016
   66.20   72.93  -23.10     0.002000       1.1739    2.7611    0.3054
   90.12   85.24  -21.28     0.002000       0.9888    1.2351    0.8256
   94.34   90.65  -25.54     0.002000       1.1776    2.3702    0.3570
   94.28   83.31  -27.92     0.002000       0.8545    2.3483    0.4999
  102.47   94.21  -25.67     0.002000       1.0012    4.2602    0.2281
   84.20   96.93  -26.16     0.002000       1.0004    4.4504    0.2177
   84.95  114.84  -26.60     0.002000       1.0062    3.3325    0.2932
   93.11  129.64  -25.04     0.002000       0.8819    2.6649    0.4237
   97.45  110.54  -24.68     0.002000       1.0025    3.6346    0.2690
   66.00  101.36  -27.65     0.002000       1.1909    2.2204    0.3764
   84.77   96.33  -28.16     0.002000       1.0788    1.6674    0.5586
   77.70   96.02  -40.37     0.002000       0.9818    1.6433    0.6273
   80.71   92.55  -25.94     0.002000       1.2235    2.1573    0.3784
   96.40   83.23  -23.16     0.002000       0.9235    1.7668    0.6145
  110.04  100.21  -24.78     0.002000       1.0276    3.6217    0.2637
   85.41   99.70  -29.97     0.002000       0.7956    2.2637    0.5583
   91.60   72.19  -26.10     0.002000       1.0022    3.8492    0.2533
   67.55   63.34  -22.14     0.002000       1.0836    2.5225    0.3642
  109.32  123.78  -19.72     0.002000       0.9290    2.5079    0.4282
   73.71  105.44  -27.75     0.002000       1.0442    3.2723    0.2879
   76.50   78.83  -25.05     0.002000       1.0051    3.9091    0.2490
   98.01   91.55  -28.11     0.002000       1.0402    1.5931    0.6068
   85.30   92.06  -25.97     0.002000       1.0001    4.7009    0.2055
   90.97   96.68  -25.60     0.002000       0.9848    1.2254    0.8361
   83.54   98.85  -28.28     0.002000       1.1524    1.7183    0.5068
  104.99   82.30  -26.83     0.002000       1.0055    3.9260    0.2473
   94.42   83.28  -29.34     0.002000       1.1466    1.7418    0.5029
   77.48   98.36  -28.30     0.002000       1.0833    1.7722    0.5227
   91.23  112.92  -25.73     0.002000       1.0028    3.6147    0.2704
   91.59   92.52  -29.39     0.002000       1.1108    1.6799    0.5387
   79.90   93.92  -28.55     0.002000       1.1474    1.7756    0.4925
   61.84   84.14  -24.91     0.002000       1.3327    2.7415    0.2702
   96.23   89.27  -26.01     0.002000       1.2240    2.1268    0.3839
   83.16   91.09  -26.75     0.002000       1.2748    2.2399    0.3496
   79.49   90.59  -25.24     0.002000       1.2780    2.2578    0.3451
   97.89   87.38  -26.11     0.002000       1.2517    2.1425    0.3723
   82.48  116.54  -27.27     0.002000       1.0084    3.1379    0.3116
   90.40   90.54  -25.44     0.002000       1.0579    1.6807    0.5642
   91.51   89.32  -20.69     0.002000       1.0734    2.1731    0.4267
   95.46   86.82  -26.67     0.002000       1.2268    2.1210    0.3842
   97.67   91.27  -25.87     0.002000       1.0004    4.5462    0.2130
   80.70   89.81  -25.06     0.002000       1.3377    2.2614    0.3287
  110.46   85.61  -26.85     0.002000       1.0221    3.6347    0.2639
   88.77   86.03  -27.90     0.002000       1.0873    1.6335    0.5657
   97.74   90.15  -26.03     0.002000       1.2338    2.1340    0.3793
   85.73   95.56  -26.73     0.002000       0.9679    2.4421    0.4231
   88.93   95.71  -24.63     0.002000       0.8559    2.4427    0.4779
   94.28   98.93  -22.53     0.002000       0.9514    1.7640    0.5971
   99.09   87.83  -29.15     0.002000       1.0542    1.6555    0.5763
  102.41   58.51  -29.62     0.002000       0.9338    2.6860    0.3963
   67.16   94.92  -27.38     0.002000       1.0805    3.4034    0.2674
   81.64   78.64  -25.27     0.002000       1.0014    4.1181    0.2363
   98.04   89.85  -26.73     0.002000       1.2750    2.1311    0.3679
   78.58   83.47  -21.12     0.002000       1.3804    1.9373    0.3718
   88.73   91.57  -22.15     0.002000       0.8381    2.4429    0.4868
  104.04  118.11  -23.68     0.002000       1.0149    3.0362    0.3213
   88.74   71.36  -27.01     0.002000       0.7123    2.4394    0.5769
   66.26   57.89  -20.05     0.002000       1.0492    1.5374    0.6243
   84.30   94.94  -32.46     0.002000       0.9794    2.2125    0.4653
   87.73   89.77  -24.21     0.002000       1.2489    2.3384    0.3402
   99.68   87.74  -30.94     0.002000       0.7401    2.1830    0.6228
  101.63   89.90  -25.18     0.002000       1.3113    2.2581    0.3360
  119.01   82.98  -27.79     0.002000       1.2447    2.6090    0.3051
   66.12   84.78  -25.61     0.002000       1.0898    3.5056    0.2572
   82.12   58.46  -24.61     0.002000       1.0004    2.9073    0.3408
   87.13   94.93  -26.44     0.002000       1.1050    1.7135    0.5297
   65.20  100.28  -28.34     0.002000       1.1486    2.7931    0.3085
   95.94   86.87  -23.89     0.002000       1.1745    2.3166    0.3656
   87.71   98.28  -24.69     0.002000       0.7451    2.4630    0.5443
   85.66   94.51  -37.92     0.002000       1.0118    1.8311    0.5462
   65.52   83.92  -25.12     0.002000       1.1170    3.3048    0.2665
   61.48   85.66  -25.38     0.002000       1.2649    2.9385    0.2653
   93.42   65.17  -26.85     0.002000       1.0039    3.4086    0.2875
  121.63   89.46  -25.46     0.002000       1.2599    2.6801    0.2924
   72.01   86.97  -25.73     0.002000       1.0083    3.8540    0.2518
   89.11   73.94  -25.90     0.002000       1.0015    4.0114    0.2429
   94.17   92.82  -27.39     0.002000       1.0353    1.5484    0.6273
   83.86   91.11  -23.71     0.002000       1.1953    2.1987    0.3790
   80.21   91.99  -24.82     0.002000       1.2493    2.1753    0.3667
  109.52   75.75  -28.39     0.002000       1.0597    3.1723    0.2933
   91.69   62.87  -26.96     0.002000       0.7272    2.6500    0.5185
   83.63   90.62  -38.10     0.002000       0.9296    1.7296    0.6293
   79.95   49.27  -26.17     0.002000       0.8320    2.3664    0.5100
   60.58   93.74  -25.99     0.002000       1.3311    2.5711    0.2888
   92.45   50.73  -27.75     0.002000       0.8620    2.7087    0.4266
  104.49   83.67  -28.72     0.002000       1.2352    1.9280    0.4204
  106.59  100.95  -24.81     0.002000       1.0083    3.7930    0.2560
   81.23  116.14  -25.67     0.002000       0.8136    2.3393    0.5239
   91.75   51.56  -27.16     0.002000       0.8375    2.8180    0.4216
   80.19   91.82  -25.66     0.002000       1.2832    2.1879    0.3551
   90.61   56.80  -26.23     0.002000       0.9754    2.9428    0.3449
   84.07   96.97  -29.14     0.002000       0.8762    2.4524    0.4670
   95.44   76.35  -26.37     0.002000       1.0020    4.0787    0.2383
   85.39   73.01  -30.07     0.002000       0.7739    2.4088    0.5396
   83.87  121.24  -26.51     0.002000       0.7692    2.4702    0.5251
   82.52   91.20  -25.94     0.002000       1.2139    2.1193    0.3886
   86.99   89.50  -26.29     0.002000       1.3489    2.0605    0.3593
  102.01   89.71  -25.96     0.002000       1.0009    4.2857    0.2266
   68.95   65.48  -22.58     0.002000       1.0696    2.7091    0.3427
  115.97   82.38  -27.76     0.002000       1.1545    2.8499    0.3003
   85.07   97.40  -25.66     0.002000       0.9002    2.4640    0.4505
  117.17  115.11  -20.40     0.002000       1.1056    2.4873    0.3614
  100.36   90.92  -25.70     0.002000       1.0007    4.4029    0.2199
  112.75   88.67  -24.22     0.002000       1.4131    2.2171    0.3165
   97.23   89.73  -26.58     0.002000       1.3067    2.1905    0.3487
   96.86   85.08  -31.65     0.002000       0.8820    2.3256    0.4910
  102.45   75.70  -27.35     0.002000       1.0129    3.7101    0.2605
  106.04   64.85  -28.60     0.002000       0.9889    2.6671    0.3762
  106.10   77.39  -28.26     0.002000       1.0739    1.8280    0.5106
  105.03   68.40  -28.40     0.002000       1.0300    3.0774    0.3113
  106.75   91.44  -25.79     0.002000       1.0023    4.0049    0.2431
  103.84   79.65  -28.51     0.002000       1.0849    1.7749    0.5211
   86.79   87.49  -25.73     0.002000       1.0001    4.6450    0.2081
   89.97   89.60  -26.26     0.002000       1.2335    2.0742    0.3910
   95.79   88.20  -25.74     0.002000       1.1975    2.1883    0.3811
   89.78   97.29  -25.10     0.002000       0.8463    2.5580    0.4612
   96.72   88.70  -25.79     0.002000       1.2749    2.1259    0.3681
   89.71   89.59  -32.51     0.002000       0.9992    2.2146    0.4558
   70.48  108.20  -27.38     0.002000       1.0716    2.1318    0.4365
   84.57   90.25  -23.71     0.002000       1.2763    2.1238    0.3673
   63.46  100.19  -27.83     0.002000       1.1962    2.5545    0.3245
  114.10   75.91  -28.43     0.002000       1.1179    2.5645    0.3460
   85.02  122.24  -27.43     0.002000       0.9781    2.9779    0.3397
   88.48   93.08  -25.74     0.002000       0.8984    2.5500    0.4360
   93.83   87.52  -26.87     0.002000       1.2009    2.0900    0.3988
   91.25   98.56  -25.95     0.002000       0.7215    2.4377    0.5694
   97.36   89.86  -26.75     0.002000       1.2416    2.2886    0.3514
   92.27   90.72  -30.35     0.002000       1.1480    1.7984    0.4868
   72.77   99.23  -27.05     0.002000       1.0262    3.6113    0.2644
   86.93   96.04  -19.96     0.002000       1.0166    2.0673    0.4746
   88.59   89.52  -25.81     0.002000       1.3071    2.0340    0.3758
  108.53  120.78  -22.58     0.002000       1.0353    2.7361    0.3509
  103.48   89.05  -25.89     0.002000       1.0011    4.1824    0.2323
   97.79   89.03  -26.42     0.002000       1.2853    2.0725    0.3753
   59.87   90.99  -25.22     0.002000       1.2554    2.6784    0.2935
   84.12   95.31  -27.94     0.002000       1.1710    1.7642    0.4855
  101.04   68.77  -21.36     0.002000       1.0605    1.7696    0.5338
   89.52   90.15  -28.06     0.002000       1.1940    2.1009    0.3993
   86.00   91.71  -24.58     0.002000       1.1637    2.2190    0.3863
   88.93   93.33  -23.81     0.002000       0.9923    1.7927    0.5630
   96.28  100.34  -25.32     0.002000       1.0011    4.3153    0.2248
   86.73  122.03  -27.10     0.002000       0.9835    3.0605    0.3284
   74.31  100.34  -27.40     0.002000       1.0777    1.8631    0.4987
   95.22   85.71  -27.05     0.002000       0.8993    2.5572    0.4349
   69.05   94.20  -26.85     0.002000       1.0390    3.5900    0.2629
   92.03   92.88  -30.89     0.002000       0.9138    2.3278    0.4733
   82.07   90.81  -26.03     0.002000       1.2056    2.1481    0.3859
   98.31   86.82  -26.42     0.002000       1.3070    2.0950    0.3643
   77.09   76.20  -24.99     0.002000       1.0081    3.8516    0.2523
   97.23   81.94  -27.38     0.002000       0.8288    2.5161    0.4799
   79.52   53.38  -24.01     0.002000       0.9738    2.6146    0.3913
   73.79   96.13  -26.90     0.002000       1.0084    3.9472    0.2454
   90.46   95.03  -12.52     0.002000       0.9997    1.5945    0.6289
  119.50   88.89  -26.49     0.002000       1.2914    2.7083    0.2825
   85.47   96.27  -28.94     0.002000       0.9528    2.2455    0.4695
  106.20   80.84  -27.30     0.002000       1.0131    3.8394    0.2514
   97.30   56.45  -27.63     0.002000       0.7695    2.4986    0.5189
  106.16   75.73  -26.23     0.002000       1.0659    2.0082    0.4663
  119.28   95.67  -24.83     0.002000       1.3608    2.6750    0.2712
   85.48   96.66  -27.82     0.002000       0.9738    2.3538    0.4373
   73.90   88.75  -25.24     0.002000       1.4164    2.2696    0.3088
   89.76   91.89  -37.75     0.002000       0.9896    1.8836    0.5431
   79.59   81.08  -25.27     0.002000       1.0014    4.1462    0.2346
   87.91   92.18  -30.28     0.002000       1.0381    2.1160    0.4582
   88.83   93.37  -30.14     0.002000       1.1509    1.8503    0.4718
   97.10  131.32  -24.27     0.002000       0.8300    2.5225    0.4775
   91.00   85.83  -24.64     0.002000       1.0396    1.7339    0.5559
   88.77  112.95  -26.31     0.002000       1.0037    3.6286    0.2692
   94.27   90.13  -25.89     0.002000       1.2880    2.0453    0.3793
   93.24   88.59  -24.61     0.002000       1.2631    2.1500    0.3670
  103.26   89.03  -25.94     0.002000       1.3346    2.2230    0.3356
  104.72   79.47  -29.14     0.002000       1.1537    1.8087    0.4806
   81.28   90.74  -25.06     0.002000       1.3454    2.2383    0.3302
  109.31   87.21  -26.01     0.002000       1.0079    3.7359    0.2597
   89.37   88.39  -30.24     0.002000       1.0560    1.5732    0.6060
   84.39   94.43  -23.43     0.002000       1.1314    2.2846    0.3851
   80.90   86.28  -25.81     0.002000       1.0007    4.4796    0.2165
   85.06   91.17  -25.31     0.002000       1.2369    2.1451    0.3762
  109.36   99.66  -24.76     0.002000       1.0174    3.6896    0.2611
   62.30   77.60  -23.34     0.002000       1.3154    2.5286    0.2976
   86.67  127.30  -27.34     0.002000       0.7693    2.6877    0.4821
   96.96  103.94  -25.13     0.002000       1.0016    4.0612    0.2396
   63.47   96.00  -27.21     0.002000       1.3127    2.3602    0.3203
   86.78   92.56  -26.76     0.002000       0.9436    2.5349    0.4180
   89.90   71.97  -26.01     0.002000       1.0019    3.8712    0.2520
  108.14   87.75  -26.50     0.002000       1.3885    2.2091    0.3243
   91.07   64.95  -26.58     0.002000       1.0030    3.4723    0.2824
  101.46   89.36  -25.15     0.002000       1.3457    2.2315    0.3312
   99.99  128.21  -24.02     0.002000       0.8422    2.6120    0.4544
   63.78   99.24  -28.13     0.002000       1.1933    2.6213    0.3169
  107.70   76.29  -27.76     0.002000       1.0378    3.3599    0.2819
   67.97   95.58  -27.18     0.002000       1.0663    3.4204    0.2693
   76.18   51.28  -22.04     0.002000       0.8436    2.4285    0.4888
   91.78   94.00  -25.44     0.002000       1.0126    1.5572    0.6373
   85.30   89.81  -30.04     0.002000       1.1464    1.8069    0.4850
   78.72   51.11  -24.65     0.002000       0.9464    2.5572    0.4128
  117.44   91.55  -25.92     0.002000       1.1472    3.1855    0.2693
   93.91   87.71  -22.61     0.002000       1.0729    2.1886    0.4247
  102.28   94.38  -25.74     0.002000       1.0012    4.3610    0.2226
   92.91   88.49  -26.12     0.002000       1.2141    2.1521    0.3825
   89.21   96.72  -23.74     0.002000       0.8546    2.4482    0.4771
   61.02   85.17  -24.57     0.002000       1.4014    2.4816    0.2843
   89.54   82.91  -24.32     0.002000       1.0260    1.7190    0.5682
  111.84   76.84  -28.45     0.002000       1.0862    2.9844    0.3046
   82.71   58.89  -24.60     0.002000       0.9973    2.9641    0.3350
   61.80   95.63  -26.34     0.002000       1.3432    2.3963    0.3078
   79.44   55.41  -23.19     0.002000       0.9604    2.7607    0.3748
   88.18   60.04  -28.31     0.002000       0.7337    2.4916    0.5488
   90.84   70.74  -26.10     0.002000       1.0023    3.8263    0.2549
   83.21  118.55  -27.13     0.002000       1.0011    3.0474    0.3236
   94.57   89.15  -29.33     0.002000       1.1238    1.7097    0.5230
   78.71  110.63  -27.87     0.002000       1.0225    3.3990    0.2829
   93.14   60.95  -26.97     0.002000       0.7169    2.5447    0.5479
   98.73   92.68  -25.35     0.002000       1.0238    1.6452    0.5960
  115.61   81.63  -27.66     0.002000       1.2885    2.1761    0.3550
   96.34   53.35  -27.36     0.002000       0.7714    2.5940    0.4979
   90.62  115.38  -24.32     0.002000       0.7096    2.5850    0.5441
   93.14   89.96  -35.54     0.002000       0.9658    1.9222    0.5446
   96.06   85.19  -29.58     0.002000       1.0787    1.6544    0.5637
  104.92   99.83  -24.79     0.002000       1.0027    3.9251    0.2482
   99.68   86.87  -25.61     0.002000       1.2156    2.2537    0.3640
   90.75   88.76  -30.32     0.002000       1.1559    1.8636    0.4664
  105.78  101.93  -24.65     0.002000       1.0060    3.8112    0.2553
  115.12   87.65  -25.58     0.002000       1.4373    2.2781    0.3028
   92.30   85.43  -21.71     0.002000       1.1208    2.2168    0.4003
   95.61   90.70  -26.66     0.002000       1.2368    2.3056    0.3500
   61.19   89.94  -26.33     0.002000       1.3059    2.7675    0.2733
   87.07   92.43  -26.01     0.002000       1.0001    4.7655    0.2027
   93.78  125.46  -24.47     0.002000       0.9388    2.8670    0.3685
   84.36  105.13  -20.29     0.002000       1.0053    1.9347    0.5141
   65.41   94.72  -26.87     0.002000       1.3703    2.2647    0.3200
  117.09   98.22  -24.82     0.002000       1.1810    3.1600    0.2638
  101.89   87.99  -26.68     0.002000       1.3092    2.1666    0.3517
   82.38  100.69  -28.93     0.002000       0.9018    2.2997    0.4840
  112.18   71.19  -28.97     0.002000       1.0799    2.3879    0.3858
  105.05   79.61  -29.06     0.002000       1.2120    1.8294    0.4519
   83.47   74.09  -25.27     0.002000       1.0019    3.9136    0.2493
   99.38   82.48  -28.91     0.002000       1.2636    1.8383    0.4313
  111.87   87.49  -25.47     0.002000       1.4321    2.2259    0.3113
   86.56   90.95  -25.14     0.002000       0.7353    2.4882    0.5465
  116.99   92.44  -25.84     0.002000       1.1382    3.2233    0.2682
   98.21  119.77  -24.40     0.002000       1.0023    3.1197    0.3159
   92.26   90.20  -26.13     0.002000       1.3189    2.0622    0.3672
   94.60   84.48  -26.13     0.002000       1.0003    4.5690    0.2119
   93.04   50.82  -28.22     0.002000       0.7741    2.6389    0.4888
   72.89  111.90  -28.58     0.002000       1.0447    2.7587    0.3436
  108.50  128.04  -22.04     0.002000       0.9796    2.3613    0.4324
   94.04   94.47  -25.70     0.002000       1.0552    1.6409    0.5796
  104.10   81.84  -36.74     0.002000       0.9247    1.9596    0.5576
   89.20   89.21  -22.75     0.002000       0.8422    2.2890    0.5181
   92.96   88.65  -27.91     0.002000       1.2206    2.0358    0.4029
   83.97   93.55  -27.70     0.002000       1.2704    2.0501    0.3840
   87.09   96.92  -26.04     0.002000       1.0003    4.5705    0.2117
   80.82   62.05  -24.35     0.002000       1.0039    3.0868    0.3191
   77.73   97.29  -26.58     0.002000       1.0026    4.0779    0.2383
  101.54   81.31  -33.27     0.002000       0.9815    2.0547    0.5001
   87.81   89.74  -19.28     0.002000       1.0500    2.0001    0.4751
   62.52   81.66  -24.22     0.002000       1.1799    2.9771    0.2807
   77.99   93.88  -26.20     0.002000       1.0010    4.1979    0.2315
   97.37   79.96  -27.76     0.002000       0.8830    2.3763    0.4776
   66.59   81.41  -24.67     0.002000       1.0927    3.3428    0.2693
   91.43   87.65  -25.85     0.002000       1.2794    2.0883    0.3737
   72.34   96.65  -27.16     0.002000       1.0175    3.8235    0.2516
   99.67   91.41  -24.20     0.002000       1.3132    2.2723    0.3329
  102.96  130.44  -22.32     0.002000       0.8716    2.4521    0.4680
   94.30  116.76  -28.20     0.002000       0.7509    2.4878    0.5373
   84.51   92.80  -26.09     0.002000       1.2472    2.0920    0.3831
   91.28   94.98  -21.83     0.002000       1.2765    2.1178    0.3676
   85.02   88.88  -26.20     0.002000       1.0101    1.5751    0.6317
   85.23   93.20  -30.59     0.002000       1.1158    1.8013    0.5003
   87.70   92.13  -28.23     0.002000       1.2018    2.0817    0.4004
   61.31   88.70  -26.16     0.002000       1.2417    3.0235    0.2625
   98.74   53.98  -28.28     0.002000       0.8542    2.6549    0.4386
   76.68   97.60  -27.68     0.002000       1.2922    1.9128    0.4045
   83.82   96.12  -26.21     0.002000       1.0004    4.5130    0.2146
   99.36   87.82  -26.67     0.002000       1.2552    2.2279    0.3571
  117.17   90.87  -25.59     0.002000       1.4247    2.3887    0.2910
   72.88  106.84  -27.82     0.002000       1.0453    3.0756    0.3067
   94.15   55.12  -27.08     0.002000       0.9441    2.8664    0.3663
   78.12   90.54  -25.88     0.002000       1.0008    4.2789    0.2269
   75.82   90.11  -24.75     0.002000       1.3476    2.2357    0.3299
   87.76   95.75  -23.19     0.002000       0.8175    2.3201    0.5264
   98.02   71.82  -23.67     0.002000       0.8958    2.0597    0.5415
   76.16   95.09  -26.56     0.002000       1.0022    4.0817    0.2384
   80.24   59.36  -24.57     0.002000       1.0056    2.9485    0.3344
   89.40   99.88  -20.25     0.002000       1.2058    1.9472    0.4245
   92.86   65.01  -26.45     0.002000       1.0017    3.3833    0.2902
   66.12   99.38  -28.11     0.002000       1.1254    2.9915    0.2933
   97.53   85.22  -27.48     0.002000       1.3409    1.9503    0.3821
   96.10   84.69  -25.23     0.002000       0.9932    1.6183    0.6249
   99.27   85.81  -29.07     0.002000       1.0658    1.6898    0.5583
  108.16   69.56  -28.95     0.002000       1.0514    2.8856    0.3261
   79.62   86.19  -25.75     0.002000       1.0008    4.4259    0.2192
   86.34   97.62  -20.49     0.002000       0.9947    2.0616    0.4869
   96.07  122.45  -24.47     0.002000       0.9935    2.9291    0.3402
   88.87   92.74  -32.46     0.002000       0.9985    2.0984    0.4815
   81.18  104.69  -19.64     0.002000       1.2644    1.6322    0.4849
  102.31   90.40  -25.89     0.002000       1.0009    4.2985    0.2258
   93.33   85.22  -23.37     0.002000       0.7802    2.4476    0.5224
   85.11   97.34  -24.18     0.002000       0.9778    1.8985    0.5390
  103.31   60.12  -29.10     0.002000       0.8871    2.5134    0.4467
   99.63   90.89  -25.94     0.002000       1.0006    4.4652    0.2171
   93.86   91.66  -30.28     0.002000       1.1274    1.7119    0.5210
   80.77   86.75  -23.56     0.002000       1.3468    2.2311    0.3303
   99.48   72.32  -20.68     0.002000       1.0864    1.8129    0.5080
   77.84  103.21  -26.46     0.002000       1.0751    1.7800    0.5235
   81.21   93.50  -26.54     0.002000       1.3949    2.0566    0.3475
   90.11   94.57  -23.36     0.002000       0.8250    2.4080    0.5027
