MORPHOLOGY AT STRAIN =    1.0000  FOR PHASE  1
   0.595   2.855   0.579  <-- AXES OF PHASE ELLIPSOID
   90.22   89.98   -0.01  <-- EULER ANGLES OF PHASE ELLIPSOID (deg)
   0.691   2.911   0.510  <-- AVERAGE OF GRAIN AXES FOR PHASE
   0.133   0.199   0.173  <-- STANDARD DEV OF AVG GRAIN AXES FOR PHASE
B       500
  176.29   90.34   48.45     0.001000       0.6855    2.2101    0.6538
    6.03   87.69   41.83     0.001000       0.7421    2.6125    0.5084
 -172.51   90.00  101.77     0.001000       0.8121    2.9392    0.4109
  173.55   88.60   56.55     0.001000       0.8263    2.8574    0.4154
  179.96   90.05  104.59     0.001000       0.5627    3.7067    0.4668
 -179.28   89.64   84.20     0.001000       0.5246    3.6279    0.5123
   -6.58   91.59  -40.26     0.001000       0.7679    2.7457    0.4666
 -179.26   89.93   53.84     0.001000       0.6185    3.6777    0.4280
 -178.37   91.24   64.67     0.001000       0.6930    2.1580    0.6626
   -2.84   93.06    2.65     0.001000       0.6934    2.2554    0.6329
 -179.08   89.56  121.64     0.001000       0.5826    3.6823    0.4540
  179.47   90.37   70.04     0.001000       0.5275    3.6290    0.5093
    1.60   93.56  -43.12     0.001000       0.7055    2.2345    0.6280
   -7.12   90.55   15.28     0.001000       0.7979    2.8814    0.4270
   -6.82   90.64  -12.77     0.001000       0.7450    2.7192    0.4860
    0.78   90.36   10.47     0.001000       0.5307    3.6917    0.4973
    0.91   90.28  -39.95     0.001000       0.5410    3.6635    0.4917
    5.07   89.08  -34.48     0.001000       0.7991    3.3261    0.3669
    4.81   87.77  -29.77     0.001000       0.6930    2.3488    0.6076
    1.80   89.03   -9.04     0.001000       0.6847    3.5664    0.3988
    4.94   87.62   11.73     0.001000       0.6973    2.3929    0.5924
 -173.49   90.92   89.87     0.001000       0.8538    3.1789    0.3596
  179.89   90.69   64.45     0.001000       0.5171    3.6907    0.5105
 -172.65   90.14   89.75     0.001000       0.7803    2.8336    0.4445
    0.66   89.21   41.44     0.001000       0.6756    3.6252    0.3974
   -5.86   92.34   47.27     0.001000       0.7430    2.6025    0.5097
  179.37   90.23   77.66     0.001000       0.5285    3.6269    0.5086
   -5.58   89.13  -45.52     0.001000       0.8380    3.2376    0.3595
 -179.09   89.93   84.66     0.001000       0.5378    3.6509    0.4964
  178.95   93.57   96.91     0.001000       0.7156    2.2221    0.6227
    0.79   89.31   44.83     0.001000       0.6000    3.6665    0.4426
  177.40   92.92   94.86     0.001000       0.7024    2.2204    0.6349
 -176.90   93.52  119.39     0.001000       0.7082    2.3110    0.6044
   -3.38   89.87   41.91     0.001000       0.6612    3.5453    0.4159
 -177.37   92.75  105.01     0.001000       0.6959    2.2226    0.6403
 -175.19   92.44   97.07     0.001000       0.7021    2.3699    0.5942
 -174.50   88.72   75.28     0.001000       0.6979    2.3820    0.5947
   -2.71   90.95    4.46     0.001000       0.7317    3.4724    0.3834
 -173.64   89.32   87.03     0.001000       0.8293    3.2429    0.3629
  179.58   89.86   73.07     0.001000       0.5646    3.7084    0.4651
   -0.73   85.83   14.03     0.001000       0.7361    2.2840    0.5884
 -179.10   89.74  124.27     0.001000       0.5199    3.6792    0.5094
  176.46   90.33   63.24     0.001000       0.6761    3.5365    0.4078
  178.57   88.04  117.30     0.001000       0.6890    2.1662    0.6639
    6.62   91.59  -35.25     0.001000       0.7495    2.7044    0.4857
   -3.13   90.51  -35.45     0.001000       0.8085    3.3507    0.3596
   -2.18   93.15  -12.75     0.001000       0.8182    2.4761    0.4865
  177.73   85.91   52.35     0.001000       0.7580    2.3587    0.5527
 -178.27   86.34  111.71     0.001000       0.8011    2.4276    0.5073
    5.46   92.20  -19.96     0.001000       0.7939    2.6769    0.4628
    1.97   90.97  -13.99     0.001000       0.6372    3.5943    0.4254
  178.77   89.14   79.90     0.001000       0.6261    3.6475    0.4264
  179.33   92.92  136.71     0.001000       0.6990    2.1854    0.6485
  178.08   89.54   94.71     0.001000       0.6045    3.6471    0.4419
  179.75   89.20   97.40     0.001000       0.6873    2.1429    0.6730
    7.22   89.17  -42.96     0.001000       0.8187    2.9462    0.4065
  173.21   89.46   60.94     0.001000       0.7240    2.6067    0.5225
  177.42   86.12   86.72     0.001000       0.7722    2.4075    0.5311
 -179.81   90.44   79.66     0.001000       0.5252    3.6159    0.5135
 -179.15   89.95  129.49     0.001000       0.5696    3.6710    0.4659
  179.07   89.93  110.13     0.001000       0.5314    3.6499    0.5026
  173.04   89.62   54.29     0.001000       0.7334    2.6577    0.5055
  179.07   94.12  102.37     0.001000       0.7389    2.2827    0.5865
 -179.11   89.59  116.18     0.001000       0.5326    3.6745    0.4979
 -179.51   94.14   54.20     0.001000       0.7709    2.3427    0.5472
  177.64   89.10   40.86     0.001000       0.6876    2.1671    0.6650
 -172.94   89.06   74.04     0.001000       0.7517    2.7271    0.4802
  178.80   88.98   88.16     0.001000       0.6911    2.1495    0.6671
    4.32   89.03   23.96     0.001000       0.7836    3.3590    0.3703
   -3.63   87.72  -34.64     0.001000       0.6854    2.2616    0.6386
    4.97   90.70    7.74     0.001000       0.7547    3.3763    0.3829
  179.85   90.08   63.36     0.001000       0.5487    3.7066    0.4789
   -0.20   90.13   -6.40     0.001000       0.5434    3.6933    0.4853
 -177.32   90.86  131.91     0.001000       0.7397    3.4884    0.3774
  179.70   89.88   59.46     0.001000       0.5725    3.6984    0.4599
    0.87   89.57   -5.64     0.001000       0.5264    3.6629    0.5054
 -172.96   88.77   88.37     0.001000       0.8067    2.8916    0.4207
 -175.46   89.64  106.92     0.001000       0.6878    2.2645    0.6355
    0.52   90.73  -33.17     0.001000       0.6362    3.6396    0.4205
 -173.50   89.96   85.22     0.001000       0.7125    2.5289    0.5477
    7.14   90.97  -43.20     0.001000       0.8459    3.0503    0.3792
    0.92   89.88   29.95     0.001000       0.5898    3.6666    0.4504
 -176.34   89.09  130.75     0.001000       0.7151    3.4770    0.3921
    3.19   90.54   -0.64     0.001000       0.6465    3.5504    0.4247
 -179.62   89.66   83.56     0.001000       0.5266    3.6101    0.5130
  178.39   90.71   88.34     0.001000       0.6304    3.6368    0.4248
    4.67   87.41   -7.80     0.001000       0.8040    2.6026    0.4705
 -179.12   89.87  121.13     0.001000       0.5727    3.6738    0.4630
   -3.12   91.73   40.64     0.001000       0.6853    2.2092    0.6542
    3.13   93.59   -8.60     0.001000       0.7143    2.3240    0.5958
 -179.91   90.35  103.04     0.001000       0.6901    3.6402    0.3872
   -1.18   89.10  -10.64     0.001000       0.6434    3.6081    0.4196
   -0.32   89.89   37.31     0.001000       0.5267    3.7093    0.4985
 -177.28   91.74   45.85     0.001000       0.6925    2.1886    0.6536
 -179.12   89.80  120.15     0.001000       0.5245    3.6526    0.5087
  172.99   89.63   82.42     0.001000       0.7346    2.6624    0.5038
    3.29   86.90  -10.88     0.001000       0.6947    2.2702    0.6276
    7.23   90.92  -39.80     0.001000       0.8288    2.9788    0.3969
  176.65   92.73   71.31     0.001000       0.6981    2.2501    0.6303
    0.33   89.74  -17.65     0.001000       0.5879    3.6750    0.4508
 -177.60   86.46   98.36     0.001000       0.7122    2.2531    0.6168
 -179.43   90.65   78.54     0.001000       0.5245    3.6491    0.5093
  176.54   93.15  104.48     0.001000       0.7051    2.2769    0.6164
  176.43   93.58  121.35     0.001000       0.7187    2.3345    0.5894
 -179.56   89.56   77.48     0.001000       0.5274    3.6151    0.5115
   -4.95   91.28   39.93     0.001000       0.8666    2.8372    0.3986
    0.22   89.66   36.07     0.001000       0.6341    3.6633    0.4190
  178.45   89.88  112.24     0.001000       0.6860    2.1496    0.6720
  177.03   92.10   54.21     0.001000       0.6901    2.2100    0.6494
   -3.68   90.98   -8.35     0.001000       0.7119    3.4554    0.3965
  173.41   91.61   82.05     0.001000       0.7387    2.6484    0.5036
   -6.15   91.16  -18.26     0.001000       0.7115    2.5499    0.5439
 -179.25   87.88   78.42     0.001000       0.6973    2.1618    0.6573
   -4.90   90.49   -1.85     0.001000       0.6821    2.3242    0.6240
 -177.75   89.68  112.55     0.001000       0.6149    3.6314    0.4363
 -179.25   87.29  107.57     0.001000       0.7008    2.1780    0.6491
  175.20   89.01  130.21     0.001000       0.6848    2.2984    0.6287
    3.61   92.82  -41.03     0.001000       0.6919    2.2805    0.6272
 -173.00   90.74  100.47     0.001000       0.8469    3.1312    0.3685
 -175.02   90.66   72.38     0.001000       0.8300    3.2662    0.3595
  179.90   89.92   51.04     0.001000       0.5471    3.7079    0.4801
 -179.30   89.95   80.13     0.001000       0.5289    3.6232    0.5088
    3.27   90.67   41.55     0.001000       0.7632    3.4373    0.3712
  176.45   88.49   48.87     0.001000       0.6898    2.2128    0.6489
  172.61   90.55   61.67     0.001000       0.8357    3.0203    0.3879
    4.95   87.63    7.79     0.001000       0.8097    2.6528    0.4580
 -179.58   90.14   82.23     0.001000       0.5275    3.6109    0.5119
  177.31   92.59  100.00     0.001000       0.6989    2.2089    0.6415
  179.80   88.88   94.05     0.001000       0.6901    2.1452    0.6695
  179.22   89.90  106.80     0.001000       0.6096    3.6804    0.4340
  179.13   90.27   81.09     0.001000       0.5497    3.6826    0.4813
 -173.24   88.44   96.67     0.001000       0.7856    2.8013    0.4466
    0.60   90.58  -48.07     0.001000       0.5245    3.6915    0.5032
   -1.51   93.98  -25.20     0.001000       0.7682    2.3618    0.5445
 -177.24   93.88   90.19     0.001000       0.7553    2.3881    0.5477
  175.56   88.53  112.68     0.001000       0.6872    2.2730    0.6337
    0.13   89.72   -2.95     0.001000       0.6873    3.6137    0.3918
    7.00   89.08  -18.14     0.001000       0.8484    3.0927    0.3726
  179.85   90.03   88.62     0.001000       0.5629    3.7087    0.4665
   -3.76   93.26   28.22     0.001000       0.7071    2.3547    0.5939
   -7.01   90.65  -43.06     0.001000       0.7612    2.7743    0.4658
    2.56   86.29  -23.82     0.001000       0.7826    2.4204    0.5211
 -179.16   89.94   85.50     0.001000       0.6547    3.6640    0.4057
   -3.35   90.87    9.04     0.001000       0.6818    3.4995    0.4087
 -179.59   89.47   50.37     0.001000       0.5902    3.6813    0.4482
   -1.97   93.68   32.74     0.001000       0.7109    2.2660    0.6144
  175.41   93.10   98.08     0.001000       0.7170    2.3974    0.5749
 -179.03   89.89   84.33     0.001000       0.5954    3.6768    0.4448
 -179.82   89.86   82.05     0.001000       0.5274    3.6029    0.5132
  177.78   86.00   93.49     0.001000       0.7278    2.3004    0.5908
 -179.38   86.59   53.36     0.001000       0.7084    2.2048    0.6341
  179.21   86.72   54.97     0.001000       0.7082    2.1988    0.6360
    2.82   89.24   -8.37     0.001000       0.6458    3.5615    0.4238
  173.16   90.96   86.18     0.001000       0.7333    2.6476    0.5076
  179.77   90.40   86.43     0.001000       0.6117    3.6800    0.4325
    6.20   90.95  -17.55     0.001000       0.8329    3.2199    0.3639
   -1.38   93.99   36.34     0.001000       0.7690    2.3666    0.5428
 -173.39   89.27   47.20     0.001000       0.8350    3.2115    0.3641
   -0.82   89.59   32.92     0.001000       0.5307    3.6760    0.4995
   -0.58   89.60   12.96     0.001000       0.7145    3.5825    0.3801
   -5.20   92.66   32.31     0.001000       0.7258    2.5089    0.5420
  174.68   90.58  123.99     0.001000       0.8775    3.0900    0.3599
 -175.16   87.38   97.35     0.001000       0.7069    2.3806    0.5874
  178.49   91.91   74.12     0.001000       0.6955    2.1664    0.6576
 -174.12   88.58   66.89     0.001000       0.7051    2.4498    0.5719
  179.07   92.54  121.51     0.001000       0.6976    2.1747    0.6531
  172.92   89.95  121.22     0.001000       0.7407    2.6960    0.4932
    0.57   89.21   44.60     0.001000       0.5251    3.6750    0.5050
  179.47   89.89   81.10     0.001000       0.5277    3.6150    0.5112
    5.01   90.82   21.25     0.001000       0.6866    2.3215    0.6207
  173.29   88.96   68.81     0.001000       0.7259    2.6088    0.5206
 -179.18   90.56  129.45     0.001000       0.5932    3.6651    0.4480
  179.14   89.93   83.01     0.001000       0.6466    3.6697    0.4102
 -179.81   89.67  105.74     0.001000       0.6861    3.6419    0.3893
    0.40   93.98   20.31     0.001000       0.7805    2.3626    0.5357
 -173.17   91.29   66.91     0.001000       0.8199    2.8862    0.4145
   -0.25   93.43   18.06     0.001000       0.7068    2.2127    0.6332
 -173.28   91.50  104.79     0.001000       0.7967    2.8367    0.4346
 -173.08   88.91   82.20     0.001000       0.7432    2.6889    0.4929
    0.36   89.57  -32.51     0.001000       0.6343    3.6516    0.4203
  178.75   93.63  116.47     0.001000       0.8091    2.4308    0.5015
 -179.07   90.25   70.51     0.001000       0.5347    3.6594    0.4981
 -173.65   91.70   84.00     0.001000       0.7284    2.5895    0.5228
  177.57   91.34   85.97     0.001000       0.6930    2.1724    0.6581
   -4.53   90.34   25.24     0.001000       0.6821    2.2751    0.6378
  178.32   94.01  125.32     0.001000       0.7775    2.3798    0.5337
  173.41   90.69   54.96     0.001000       0.7179    2.5694    0.5348
   -7.08   89.66    1.92     0.001000       0.7822    2.8371    0.4428
 -173.15   88.79  127.25     0.001000       0.7571    2.7476    0.4730
  177.37   89.27   66.08     0.001000       0.6525    3.5863    0.4164
   -6.23   91.59   16.63     0.001000       0.7256    2.6066    0.5213
 -179.96   92.21   93.44     0.001000       0.6982    2.1628    0.6562
   -0.79   86.08  -46.25     0.001000       0.7186    2.2509    0.6120
 -179.28   89.79   81.25     0.001000       0.5293    3.6259    0.5081
   -2.20   91.07   39.89     0.001000       0.6939    3.5506    0.3953
    0.94   89.92   20.64     0.001000       0.5678    3.6659    0.4681
 -179.38   89.89  124.29     0.001000       0.6082    3.6794    0.4351
  179.12   89.73   50.64     0.001000       0.5377    3.6657    0.4944
    6.56   88.34   18.41     0.001000       0.7433    2.6797    0.4945
   -2.54   93.72    1.39     0.001000       0.7651    2.4015    0.5375
    1.43   90.84   -2.08     0.001000       0.6897    3.5781    0.3945
  179.19   87.35   93.24     0.001000       0.7003    2.1755    0.6503
   -3.26   86.45  -14.25     0.001000       0.7083    2.3293    0.5994
   -0.39   89.82   20.16     0.001000       0.5258    3.7058    0.4998
 -179.73   89.91  101.07     0.001000       0.5513    3.7112    0.4760
    7.20   90.88   -8.38     0.001000       0.8160    2.9363    0.4093
    2.52   91.05  -36.16     0.001000       0.7168    3.5191    0.3861
   -0.67   89.95   11.72     0.001000       0.6445    3.6437    0.4145
   -0.43   90.63   21.92     0.001000       0.6161    3.6467    0.4334
    0.84   92.82    9.81     0.001000       0.6963    2.1856    0.6509
   -4.34   86.69   15.50     0.001000       0.7422    2.4559    0.5416
 -177.23   90.93   78.47     0.001000       0.7258    3.5254    0.3806
   -7.35   89.81  -37.13     0.001000       0.8141    2.9414    0.4096
  179.24   89.52   75.36     0.001000       0.5251    3.6400    0.5100
  179.26   89.96   87.37     0.001000       0.5288    3.6283    0.5082
  178.08   89.23   85.88     0.001000       0.7324    3.5444    0.3749
    0.58   86.33  -24.65     0.001000       0.7104    2.2237    0.6268
  174.74   89.51   90.84     0.001000       0.7707    3.3773    0.3748
    4.89   89.90   25.01     0.001000       0.7268    3.4259    0.3918
  177.68   89.00   95.20     0.001000       0.6554    3.5909    0.4139
    7.02   90.28   17.12     0.001000       0.7422    2.7020    0.4911
    0.75   90.20  -19.03     0.001000       0.5742    3.6753    0.4616
   -1.54   86.36  -12.31     0.001000       0.7057    2.2373    0.6270
   -2.91   93.13  -33.40     0.001000       0.6994    2.2548    0.6277
 -179.93   89.05   84.80     0.001000       0.5249    3.6455    0.5095
  172.79   89.19   83.36     0.001000       0.7900    2.8574    0.4351
 -179.77   89.70  122.82     0.001000       0.6831    3.6385    0.3914
 -176.66   90.02   59.44     0.001000       0.6572    3.5686    0.4156
    5.66   91.83   39.93     0.001000       0.7064    2.4449    0.5720
 -179.74   89.97   81.87     0.001000       0.5272    3.6043    0.5132
    0.76   90.49  -18.74     0.001000       0.5315    3.6830    0.4978
    0.35   90.09   34.80     0.001000       0.5607    3.7005    0.4694
 -179.11   90.17   96.49     0.001000       0.5446    3.6646    0.4883
    3.83   92.37  -10.92     0.001000       0.6875    2.2731    0.6334
  173.13   89.19   98.65     0.001000       0.7319    2.6470    0.5087
    0.92   89.65  -32.87     0.001000       0.5327    3.6795    0.4971
 -178.92   90.13   48.30     0.001000       0.5728    3.6877    0.4610
  178.99   89.26  130.93     0.001000       0.5955    3.6579    0.4471
 -178.38   89.51   87.15     0.001000       0.5985    3.6659    0.4439
  179.21   89.57  114.47     0.001000       0.5283    3.6433    0.5064
  179.08   89.77   71.36     0.001000       0.5435    3.6649    0.4892
 -173.95   91.06   65.30     0.001000       0.8595    2.9169    0.3906
 -174.21   91.77   90.67     0.001000       0.7092    2.4674    0.5644
    0.91   89.98  -27.02     0.001000       0.6161    3.6582    0.4320
  179.21   89.54  108.54     0.001000       0.5301    3.6455    0.5044
  173.93   90.70  105.93     0.001000       0.7005    2.4496    0.5757
 -172.79   89.21   86.58     0.001000       0.7770    2.8196    0.4486
    2.56   86.69    6.45     0.001000       0.6965    2.2465    0.6327
  177.68   88.13  117.34     0.001000       0.6873    2.1807    0.6610
   -0.70   90.19  -15.98     0.001000       0.5763    3.6697    0.4606
   -0.76   89.93    9.11     0.001000       0.5585    3.6665    0.4758
   -0.80   90.09  -33.13     0.001000       0.5630    3.6681    0.4718
   -0.69   90.76   -9.94     0.001000       0.6578    3.6133    0.4096
  180.00   90.34  132.84     0.001000       0.6893    3.6280    0.3891
  179.43   86.46   64.78     0.001000       0.7137    2.2112    0.6276
 -174.51   91.81  118.31     0.001000       0.7021    2.4360    0.5777
   -5.27   90.66  -20.71     0.001000       0.8810    3.0355    0.3652
  175.70   93.10  135.51     0.001000       0.7072    2.3542    0.5939
 -176.84   87.84   89.05     0.001000       0.6952    2.2139    0.6435
 -179.07   94.11   61.98     0.001000       0.7422    2.2877    0.5826
   -0.95   90.71   12.02     0.001000       0.6049    3.6395    0.4424
  179.08   89.65   86.05     0.001000       0.5523    3.6765    0.4798
 -174.91   92.54  122.02     0.001000       0.7091    2.4437    0.5700
 -176.72   93.66  118.62     0.001000       0.7579    2.4346    0.5350
  174.04   89.07   49.36     0.001000       0.8401    3.2318    0.3594
  177.06   88.12   90.06     0.001000       0.6921    2.1957    0.6518
 -178.40   88.98  105.04     0.001000       0.6698    3.6107    0.4026
    0.88   89.97   12.19     0.001000       0.6185    3.6528    0.4310
   -1.07   90.51  -35.76     0.001000       0.7210    3.5730    0.3777
  172.69   89.62   95.42     0.001000       0.7801    2.8299    0.4452
    1.03   86.18   46.08     0.001000       0.7160    2.2385    0.6176
  174.62   87.56   69.76     0.001000       0.7103    2.4367    0.5708
 -174.93   89.23   84.50     0.001000       0.6921    2.3145    0.6177
 -176.60   86.22   74.98     0.001000       0.7391    2.3841    0.5608
 -179.48   88.93   82.98     0.001000       0.6914    2.1456    0.6681
  179.50   85.85  109.38     0.001000       0.7367    2.2785    0.5894
    3.51   86.44    7.37     0.001000       0.7643    2.4500    0.5271
 -173.24   90.65  125.91     0.001000       0.8414    3.1721    0.3660
    4.62   91.06  -22.87     0.001000       0.7635    3.3836    0.3775
 -179.91   91.62  118.91     0.001000       0.6887    2.1523    0.6685
 -179.16   92.13   58.46     0.001000       0.6973    2.1645    0.6564
    0.34   86.73   31.31     0.001000       0.7031    2.1970    0.6412
   -3.14   92.86   38.20     0.001000       0.6935    2.2585    0.6320
   -0.54   89.97   13.14     0.001000       0.6160    3.6584    0.4321
 -179.36   89.93   49.40     0.001000       0.5920    3.6825    0.4467
  179.95   86.55   97.61     0.001000       0.7115    2.2059    0.6310
  174.54   89.05   71.76     0.001000       0.8194    3.3006    0.3606
    6.70   88.49    3.35     0.001000       0.7549    2.7314    0.4773
    5.78   88.61    2.99     0.001000       0.6994    2.4600    0.5741
  179.31   89.81  101.64     0.001000       0.5582    3.6991    0.4716
    0.46   86.03  -40.27     0.001000       0.7231    2.2509    0.6081
  176.54   92.80   95.87     0.001000       0.7002    2.2545    0.6271
    7.04   90.23  -26.04     0.001000       0.7429    2.7082    0.4894
 -173.62   88.38  128.47     0.001000       0.7974    2.7857    0.4423
 -179.30   89.69  119.88     0.001000       0.5619    3.6947    0.4691
   -2.46   87.40  -40.95     0.001000       0.6879    2.2129    0.6506
   -6.03   91.46   11.69     0.001000       0.7127    2.5445    0.5442
  173.85   90.76   63.29     0.001000       0.7040    2.4706    0.5678
  172.49   90.21   54.92     0.001000       0.8304    2.9999    0.3933
    2.38   86.47   38.46     0.001000       0.8021    2.4601    0.4998
 -178.92   90.79   80.28     0.001000       0.6532    3.6416    0.4093
  175.12   87.30   51.53     0.001000       0.7062    2.3822    0.5876
  175.26   90.62   95.17     0.001000       0.7576    3.4101    0.3774
  179.16   89.92   67.29     0.001000       0.6440    3.6697    0.4118
  179.69   89.33   77.51     0.001000       0.5247    3.6234    0.5128
    0.50   89.78   44.03     0.001000       0.6619    3.6544    0.4023
  179.63   89.33   97.15     0.001000       0.5251    3.6255    0.5121
 -179.95   89.90   64.37     0.001000       0.5451    3.7123    0.4812
   -3.47   90.22  -26.24     0.001000       0.6596    3.5280    0.4191
 -179.89   90.36   79.97     0.001000       0.5263    3.6113    0.5130
  175.22   87.11   87.92     0.001000       0.7096    2.3951    0.5815
 -179.56   85.99   54.74     0.001000       0.7260    2.2502    0.6058
  179.39   94.15   61.99     0.001000       0.7462    2.2969    0.5771
 -179.87   85.73   53.78     0.001000       0.7494    2.3011    0.5735
    3.90   93.08   32.21     0.001000       0.7945    2.5044    0.4954
  179.91   89.96   80.51     0.001000       0.5457    3.7122    0.4807
    0.22   90.17    8.71     0.001000       0.5913    3.6715    0.4486
  173.17   89.32   70.65     0.001000       0.7271    2.6207    0.5174
 -177.17   90.88   77.14     0.001000       0.6835    3.5592    0.4005
    0.89   89.88  -10.01     0.001000       0.5802    3.6662    0.4579
 -172.61   89.24   63.85     0.001000       0.8296    2.9941    0.3944
  179.22   90.45   77.17     0.001000       0.5331    3.6659    0.4987
    0.40   90.10   35.46     0.001000       0.5961    3.6759    0.4444
    1.02   87.82   15.64     0.001000       0.6875    2.1661    0.6654
 -179.06   89.93   99.93     0.001000       0.6148    3.6726    0.4312
 -179.28   89.52   58.34     0.001000       0.5283    3.6369    0.5074
 -178.27   85.89  114.81     0.001000       0.7505    2.3292    0.5656
  173.78   90.88  127.52     0.001000       0.7049    2.4951    0.5614
  179.76   90.73   95.64     0.001000       0.5225    3.6422    0.5123
   -5.20   89.18   40.52     0.001000       0.7938    3.3277    0.3693
  172.87   89.17   92.68     0.001000       0.8475    3.0930    0.3730
 -179.22   89.99   74.05     0.001000       0.5255    3.6274    0.5114
   -0.42   89.96  -41.54     0.001000       0.5665    3.6879    0.4662
    5.97   88.89    3.99     0.001000       0.8604    2.9171    0.3901
   -2.59   91.08   37.41     0.001000       0.6836    3.5412    0.4025
    0.80   89.80   21.44     0.001000       0.5793    3.6727    0.4578
 -173.14   88.96   83.96     0.001000       0.7365    2.6588    0.5032
  177.88   90.15   63.85     0.001000       0.6090    3.6376    0.4398
  172.93   89.07   59.73     0.001000       0.7596    2.7583    0.4696
    3.75   92.80   23.21     0.001000       0.6981    2.2840    0.6207
   -1.71   88.95  -23.42     0.001000       0.6718    3.5737    0.4057
  174.74   90.70   75.86     0.001000       0.6915    2.3291    0.6142
    0.02   93.46   24.62     0.001000       0.7088    2.2136    0.6311
  179.71   89.62   86.81     0.001000       0.6554    3.6679    0.4047
   -6.48   90.88   42.83     0.001000       0.8477    3.1788    0.3624
  178.26   94.14  110.00     0.001000       0.7516    2.3290    0.5648
   -0.57   90.56   31.44     0.001000       0.5270    3.6596    0.5054
  176.38   90.90   60.51     0.001000       0.7172    3.4872    0.3897
    3.15   87.34    6.90     0.001000       0.6877    2.2394    0.6429
 -177.36   89.30  113.92     0.001000       0.6881    2.1733    0.6625
  179.55   85.80  121.77     0.001000       0.7615    2.3324    0.5565
  176.76   87.11  118.14     0.001000       0.8214    2.5466    0.4708
 -179.40   89.16  119.43     0.001000       0.6840    2.1451    0.6754
  179.67   89.04   64.44     0.001000       0.5161    3.6743    0.5139
 -179.79   90.39  133.03     0.001000       0.5934    3.6747    0.4466
 -179.73   90.20   82.76     0.001000       0.5274    3.6081    0.5125
   -1.73   89.68   23.70     0.001000       0.5938    3.6400    0.4508
   -2.75   86.48   36.58     0.001000       0.7095    2.2633    0.6164
 -174.21   87.58  120.07     0.001000       0.7483    2.5901    0.5085
    7.03   89.53   15.79     0.001000       0.7443    2.7092    0.4883
 -179.25   89.71   65.11     0.001000       0.5245    3.6284    0.5123
 -179.21   90.12   80.25     0.001000       0.5270    3.7028    0.4991
 -179.75   89.46  102.13     0.001000       0.6846    3.6440    0.3899
 -174.55   90.86  114.97     0.001000       0.6931    2.3786    0.5997
  173.82   91.53   94.87     0.001000       0.7132    2.5140    0.5506
 -179.76   89.81   99.33     0.001000       0.7009    3.6349    0.3818
    0.69   89.93  -21.49     0.001000       0.6634    3.6355    0.4035
 -179.68   86.15   61.91     0.001000       0.8053    2.4101    0.5084
  179.11   90.23  135.19     0.001000       0.5560    3.6857    0.4754
   -0.46   89.56  -43.98     0.001000       0.5225    3.6937    0.5048
    6.77   91.45  -32.13     0.001000       0.7655    2.7637    0.4649
    1.89   94.00  -12.27     0.001000       0.7461    2.3366    0.5670
   -2.81   92.16   -2.54     0.001000       0.6841    2.2107    0.6548
   -0.13   90.29  -24.53     0.001000       0.6166    3.6594    0.4315
  176.10   89.18  102.77     0.001000       0.7910    3.3568    0.3670
   -0.67   90.31   26.63     0.001000       0.5489    3.6761    0.4828
   -3.95   89.55   20.00     0.001000       0.6939    3.4777    0.4042
 -175.31   87.07   68.64     0.001000       0.7117    2.3946    0.5799
   -6.79   88.77   32.42     0.001000       0.7472    2.7104    0.4861
   -6.96   89.12   -5.61     0.001000       0.8429    3.0619    0.3791
   -6.20   90.91  -30.38     0.001000       0.8455    3.1811    0.3629
 -178.77   86.38   95.61     0.001000       0.7153    2.2263    0.6218
  173.51   88.31   78.85     0.001000       0.7316    2.6144    0.5154
 -173.80   91.87   95.72     0.001000       0.7273    2.5781    0.5260
    3.51   86.44  -24.95     0.001000       0.7128    2.3319    0.5950
 -179.94   89.56   83.53     0.001000       0.5270    3.6074    0.5130
   -0.43   85.87   -7.47     0.001000       0.7737    2.3565    0.5419
   -0.11   88.71  -45.03     0.001000       0.6830    2.1479    0.6755
  175.22   92.50  113.14     0.001000       0.7007    2.3512    0.6003
   -2.63   91.07   38.33     0.001000       0.6832    3.5406    0.4029
  178.95   89.43  117.78     0.001000       0.5792    3.6733    0.4578
 -179.43   90.17   47.45     0.001000       0.6587    3.6528    0.4045
  179.37   90.08  112.86     0.001000       0.5641    3.7040    0.4661
   -0.92   93.59  -27.49     0.001000       0.7100    2.2261    0.6264
  179.80   89.94  108.31     0.001000       0.5391    3.7159    0.4861
  175.48   87.71   64.91     0.001000       0.6964    2.3047    0.6165
   -2.77   93.73    7.60     0.001000       0.7520    2.3938    0.5487
  178.32   86.08  107.83     0.001000       0.7205    2.2661    0.6062
   -0.25   86.17  -19.50     0.001000       0.7143    2.2356    0.6200
    5.38   89.10  -30.45     0.001000       0.6880    2.3668    0.6072
   -1.06   89.18   21.08     0.001000       0.6409    3.6221    0.4195
 -175.15   90.69   56.12     0.001000       0.8156    3.3025    0.3618
    0.22   90.17  -24.72     0.001000       0.5915    3.6798    0.4474
    6.50   88.92   45.23     0.001000       0.7191    2.5664    0.5346
    6.97   88.94  -13.81     0.001000       0.7715    2.7994    0.4552
   -3.15   93.56  -41.59     0.001000       0.7734    2.4341    0.5243
 -179.04   89.61   76.65     0.001000       0.7413    3.5839    0.3660
 -173.81   92.14   68.02     0.001000       0.7452    2.6172    0.5053
  173.67   88.61   71.91     0.001000       0.7151    2.5333    0.5448
  177.30   93.90   83.86     0.001000       0.7616    2.3888    0.5430
    4.71   92.99   -3.81     0.001000       0.7267    2.4563    0.5532
    7.38   90.45  -36.16     0.001000       0.8045    2.9035    0.4202
   -7.11   90.09    3.95     0.001000       0.7832    2.8400    0.4417
 -179.95   89.21   75.65     0.001000       0.5202    3.6283    0.5165
    0.09   90.10  -41.36     0.001000       0.7152    3.6070    0.3771
 -176.08   86.66   72.36     0.001000       0.7130    2.3458    0.5913
    7.40   89.25   33.24     0.001000       0.8275    2.9817    0.3971
 -175.36   90.84   84.32     0.001000       0.7697    3.4037    0.3721
 -177.64   93.75   86.37     0.001000       0.7194    2.2813    0.6029
  179.48   89.99   78.16     0.001000       0.5270    3.6147    0.5119
    1.78   93.50   -2.91     0.001000       0.7061    2.2369    0.6268
 -179.12   89.94   74.97     0.001000       0.5335    3.6422    0.5017
  178.54   86.26  107.94     0.001000       0.7138    2.2407    0.6189
  176.53   86.34  129.08     0.001000       0.7446    2.4150    0.5492
   -4.63   89.53  -31.30     0.001000       0.6815    2.2917    0.6337
    4.50   89.57  -27.41     0.001000       0.7152    3.4437    0.3961
    4.38   89.11   38.81     0.001000       0.7964    3.3375    0.3667
 -173.58   91.14  116.38     0.001000       0.7194    2.5744    0.5326
   -5.71   89.81   -8.96     0.001000       0.7797    3.3112    0.3781
    7.05   89.26   34.49     0.001000       0.7479    2.7161    0.4847
 -176.90   91.07  124.63     0.001000       0.7228    3.4977    0.3854
    4.72   89.60  -27.13     0.001000       0.6815    2.2857    0.6353
  174.64   92.78  103.96     0.001000       0.7541    2.5549    0.5117
    6.12   88.89  -22.81     0.001000       0.8522    2.8946    0.3971
 -172.96   90.67   59.12     0.001000       0.7418    2.6883    0.4939
 -179.01   89.76   67.94     0.001000       0.5207    3.6574    0.5118
    1.60   89.38  -25.78     0.001000       0.6814    2.1523    0.6758
 -176.54   87.44   50.44     0.001000       0.8444    2.6077    0.4467
   -4.20   86.76   20.53     0.001000       0.7123    2.3739    0.5846
    0.83   90.40  -37.00     0.001000       0.5464    3.6756    0.4851
   -0.75   89.59   19.48     0.001000       0.5826    3.6702    0.4555
   -4.33   89.63  -17.25     0.001000       0.7064    3.4477    0.4006
    5.39   92.66   22.70     0.001000       0.7477    2.5401    0.5192
    5.85   90.10  -38.03     0.001000       0.6933    2.4250    0.5877
  179.42   90.62   87.14     0.001000       0.5246    3.6495    0.5091
   -3.72   93.35    1.85     0.001000       0.7131    2.3705    0.5847
  179.29   89.87   71.74     0.001000       0.6067    3.6871    0.4352
  175.34   90.28   56.51     0.001000       0.7335    3.4374    0.3868
  179.67   90.07  133.78     0.001000       0.5583    3.6992    0.4716
   -4.55   87.64  -36.39     0.001000       0.8157    2.6521    0.4546
 -179.85   89.74   97.80     0.001000       0.5625    3.7092    0.4667
 -179.47   93.64  106.93     0.001000       0.7147    2.2232    0.6232
   -5.12   87.21  -44.62     0.001000       0.7301    2.5189    0.5365
   -7.11   90.62  -26.22     0.001000       0.8385    3.0526    0.3823
 -172.49   89.58   76.91     0.001000       0.8177    2.9559    0.4056
 -175.29   88.78   99.12     0.001000       0.6914    2.2898    0.6251
 -178.92   88.82  133.11     0.001000       0.6854    2.1518    0.6719
   -7.04   90.48  -34.93     0.001000       0.7685    2.7981    0.4573
   -0.15   90.06   14.35     0.001000       0.5412    3.6980    0.4867
 -173.93   90.08  105.26     0.001000       0.7015    2.4554    0.5735
  172.89   91.04  114.36     0.001000       0.8307    2.9614    0.3983
  172.88   90.76  131.74     0.001000       0.7662    2.7859    0.4607
   -2.81   89.32   34.13     0.001000       0.6562    3.5609    0.4171
 -175.62   88.64  110.63     0.001000       0.6900    2.2667    0.6329
    2.20   85.94   19.43     0.001000       0.7327    2.3282    0.5797
 -179.21   89.90   81.62     0.001000       0.6627    3.6608    0.4010
  179.02   90.02   70.72     0.001000       0.5202    3.6769    0.5094
   -4.97   92.72   32.04     0.001000       0.7738    2.5902    0.4915
 -174.83   87.63   95.65     0.001000       0.8066    2.6597    0.4585
 -174.47   92.62   67.88     0.001000       0.7384    2.5326    0.5275
   -2.63   87.12   13.17     0.001000       0.6941    2.2232    0.6418
  179.98   90.07   92.13     0.001000       0.5588    3.7092    0.4698
  172.94   91.11   80.61     0.001000       0.8002    2.8771    0.4264
   -3.44   86.43  -44.32     0.001000       0.7154    2.3618    0.5851
 -172.67   90.00   90.85     0.001000       0.7747    2.8160    0.4506
 -179.97   89.58   91.98     0.001000       0.6050    3.6902    0.4361
   -2.32   93.83    3.05     0.001000       0.7570    2.3786    0.5487
 -173.55   90.31  109.57     0.001000       0.7120    2.5364    0.5465
   -6.44   89.05   31.61     0.001000       0.7156    2.5651    0.5375
 -175.58   88.71   83.75     0.001000       0.6915    2.2643    0.6322
   -2.40   92.49  -11.81     0.001000       0.6881    2.2054    0.6526
  179.35   90.38   70.27     0.001000       0.5295    3.6390    0.5059
    6.05   91.40   10.61     0.001000       0.7089    2.5118    0.5544
  175.71   92.63   51.79     0.001000       0.8117    2.6015    0.4661
  179.73   89.95  105.19     0.001000       0.5505    3.7078    0.4771
 -179.15   90.40   75.17     0.001000       0.5258    3.6523    0.5075
    3.42   92.36   -7.01     0.001000       0.6869    2.2436    0.6424
 -179.12   89.47   91.54     0.001000       0.5311    3.6771    0.4990
   -5.95   91.82   41.36     0.001000       0.7156    2.5275    0.5457
  179.66   89.59   98.31     0.001000       0.5676    3.6968    0.4641
  179.69   89.93   47.30     0.001000       0.5808    3.6994    0.4532
 -179.85   89.80   61.23     0.001000       0.5723    3.7028    0.4595
 -172.95   91.08   78.31     0.001000       0.8409    2.9887    0.3896
 -179.40   90.11   87.52     0.001000       0.5363    3.7073    0.4899
    2.59   92.55   -9.52     0.001000       0.8534    2.5652    0.4495
    0.31   90.13  -33.40     0.001000       0.7246    3.5910    0.3738
  179.35   90.53   76.45     0.001000       0.5218    3.6853    0.5067
   -2.28   87.07  -25.55     0.001000       0.6908    2.2197    0.6458
   -1.55   88.19   21.62     0.001000       0.6884    2.1651    0.6648
  179.47   89.87  116.95     0.001000       0.6111    3.6853    0.4323
